time,TP9,AF7,AF8,TP10,Right AUX
1690421345.8286614,-75.68359375,-58.10546875,-38.0859375,-19.53125,0.0
1690421345.8325615,150.390625,-64.453125,-39.55078125,-36.62109375,0.0
1690421345.8364615,-13.671875,-50.29296875,-43.9453125,-34.66796875,0.0
1690421345.8403616,-240.234375,-38.57421875,-37.109375,-37.59765625,0.0
1690421345.8442616,-154.296875,-37.59765625,-41.015625,-9.765625,0.0
1690421345.8481617,145.01953125,-37.109375,-44.921875,-7.8125,0.0
1690421345.8520615,92.28515625,-47.36328125,-46.38671875,-27.34375,0.0
1690421345.8559616,-188.4765625,-55.6640625,-57.12890625,-37.59765625,0.0
1690421345.8598616,-166.9921875,-54.6875,-54.6875,-34.1796875,0.0
1690421345.8637617,84.9609375,-41.50390625,-52.734375,-27.34375,0.0
1690421345.8676617,158.203125,-16.6015625,-58.59375,-50.29296875,0.0
1690421345.8715618,-121.09375,-21.97265625,-49.8046875,-76.171875,0.0
1690421345.875543,-182.12890625,-36.62109375,-49.31640625,-39.0625,0.0
1690421345.8794432,19.53125,-22.94921875,-77.63671875,-47.8515625,0.0
1690421345.8833432,221.6796875,-15.13671875,-93.26171875,-59.08203125,0.0
1690421345.8872433,-40.52734375,-26.3671875,-72.75390625,-44.43359375,0.0
1690421345.891143,-193.359375,-30.76171875,-62.98828125,-59.08203125,0.0
1690421345.8950431,-23.92578125,-33.69140625,-60.05859375,-58.10546875,0.0
1690421345.8989432,211.9140625,-41.015625,-64.94140625,-2.44140625,0.0
1690421345.9028432,56.15234375,-43.45703125,-70.80078125,-11.23046875,0.0
1690421345.9067433,-169.921875,-29.78515625,-62.5,-45.41015625,0.0
1690421345.9106433,-113.76953125,-20.99609375,-63.4765625,-33.69140625,0.0
1690421345.9145434,156.25,-31.25,-58.59375,-24.90234375,0.0
1690421345.9184432,126.953125,-30.76171875,-46.38671875,-87.890625,0.0
1690421345.9224212,-147.4609375,-23.92578125,-51.7578125,-67.3828125,0.0
1690421345.9263213,-131.8359375,-27.34375,-53.22265625,-14.16015625,0.0
1690421345.9302213,108.3984375,-32.71484375,-53.7109375,-7.8125,0.0
1690421345.9341214,201.66015625,-29.78515625,-67.3828125,-3.41796875,0.0
1690421345.9380214,-81.54296875,-31.25,-62.5,-10.7421875,0.0
1690421345.9419212,-160.64453125,-30.2734375,-45.41015625,-13.18359375,0.0
1690421345.9458213,21.484375,-37.109375,-37.109375,-22.4609375,0.0
1690421345.9497213,230.46875,-34.66796875,-59.5703125,-25.87890625,0.0
1690421345.9536214,5.859375,-27.83203125,-56.15234375,-3.41796875,0.0
1690421345.9575214,-160.15625,-32.71484375,-34.66796875,16.6015625,0.0
1690421345.9614215,-36.1328125,-35.15625,-46.875,-0.9765625,0.0
1690421345.9653215,208.0078125,-35.15625,-53.7109375,-1.953125,0.0
1690421345.9692962,80.078125,-32.2265625,-46.38671875,-20.99609375,0.0
1690421345.973196,-168.9453125,-29.78515625,-45.41015625,-56.15234375,0.0
1690421345.977096,-116.69921875,-35.15625,-41.9921875,-12.20703125,0.0
1690421345.9809961,151.3671875,-29.296875,-33.69140625,24.4140625,0.0
1690421345.9848962,150.87890625,-24.90234375,-37.59765625,31.73828125,0.0
1690421345.9887962,-131.8359375,-31.73828125,-32.2265625,-3.41796875,0.0
1690421345.9926963,-152.34375,-30.2734375,-35.64453125,-29.78515625,0.0
1690421345.9965963,86.42578125,-23.92578125,-36.1328125,11.23046875,0.0
1690421346.0004964,224.609375,-14.6484375,-36.62109375,15.13671875,0.0
1690421346.0043964,-65.4296875,-22.94921875,-42.48046875,1.46484375,0.0
1690421346.0082965,-164.0625,-32.2265625,-36.1328125,-2.9296875,0.0
1690421346.0121963,11.71875,-20.01953125,-34.1796875,-4.8828125,0.0
1690421346.0161688,221.19140625,-16.11328125,-30.76171875,4.39453125,0.0
1690421346.020069,-2.9296875,-18.5546875,-28.3203125,-2.9296875,0.0
1690421346.023969,-204.1015625,-18.5546875,-28.80859375,-26.85546875,0.0
1690421346.027869,-90.33203125,-24.4140625,-35.64453125,-22.4609375,0.0
1690421346.0317688,182.12890625,-27.34375,-52.734375,-5.37109375,0.0
1690421346.0356688,71.2890625,-27.34375,-53.22265625,-8.7890625,0.0
1690421346.039569,-201.66015625,-38.0859375,-45.41015625,-25.390625,0.0
1690421346.043469,-164.0625,-37.59765625,-35.15625,-34.1796875,0.0
1690421346.047369,105.95703125,-29.78515625,-35.15625,-36.1328125,0.0
1690421346.051269,127.9296875,-31.73828125,-49.8046875,-18.5546875,0.0
1690421346.055169,-168.9453125,-30.76171875,-57.12890625,-13.671875,0.0
1690421346.0590692,-193.359375,-29.296875,-45.8984375,-29.296875,0.0
1690421346.0630639,32.71484375,-27.83203125,-36.1328125,-19.04296875,0.0
1690421346.066964,178.7109375,-32.71484375,-40.52734375,-6.34765625,0.0
1690421346.070864,-93.75,-35.15625,-46.38671875,-18.5546875,0.0
1690421346.074764,-210.9375,-37.59765625,-47.36328125,-28.3203125,0.0
1690421346.078664,-33.69140625,-36.62109375,-33.69140625,-6.34765625,0.0
1690421346.082564,200.1953125,-33.69140625,-30.76171875,13.671875,0.0
1690421346.0864642,-4.39453125,-36.62109375,-46.875,-16.6015625,0.0
1690421346.0903642,-201.171875,-37.59765625,-43.45703125,-25.390625,0.0
1690421346.0942643,-104.98046875,-41.9921875,-36.62109375,-17.08984375,0.0
1690421346.0981643,153.80859375,-44.921875,-32.71484375,-14.16015625,0.0
1690421346.1020644,83.984375,-40.52734375,-32.71484375,-16.6015625,0.0
1690421346.1059644,-190.91796875,-39.0625,-36.1328125,-28.3203125,0.0
1690421346.1099565,-175.29296875,-42.48046875,-39.55078125,-17.08984375,0.0
1690421346.1138566,92.28515625,-42.96875,-33.69140625,15.625,0.0
1690421346.1177566,147.94921875,-39.0625,-25.390625,13.671875,0.0
1690421346.1216567,-141.11328125,-29.296875,-27.34375,-4.8828125,0.0
1690421346.1255567,-185.05859375,-23.92578125,-33.69140625,0.0,0.0
1690421346.1294568,39.0625,-16.6015625,-36.62109375,-6.8359375,0.0
1690421346.1333568,208.984375,-16.6015625,-29.296875,-4.39453125,0.0
1690421346.1372569,-52.734375,-20.01953125,-21.97265625,10.7421875,0.0
1690421346.141157,-175.78125,-18.06640625,-19.04296875,18.06640625,0.0
1690421346.145057,-7.8125,-25.87890625,-2.9296875,20.5078125,0.0
1690421346.148957,256.8359375,-23.92578125,-8.30078125,20.5078125,0.0
1690421346.152857,72.265625,-23.4375,-13.671875,0.48828125,0.0
1690421346.1568713,-161.1328125,-29.296875,-20.5078125,-10.7421875,0.0
1690421346.1607714,-83.0078125,-26.85546875,-39.55078125,-24.90234375,0.0
1690421346.1646714,200.1953125,-20.5078125,-39.55078125,-16.11328125,0.0
1690421346.1685715,158.69140625,-15.13671875,-27.83203125,23.4375,0.0
1690421346.1724715,-136.71875,-25.390625,-25.390625,23.4375,0.0
1690421346.1763716,-154.78515625,-41.9921875,-18.06640625,-12.20703125,0.0
1690421346.1802716,88.37890625,-35.64453125,-15.13671875,-25.390625,0.0
1690421346.1841717,172.36328125,-30.76171875,-21.484375,1.46484375,0.0
1690421346.1880717,-130.859375,-34.1796875,-24.4140625,3.90625,0.0
1690421346.1919718,-212.40234375,-37.59765625,-21.97265625,-18.5546875,0.0
1690421346.1958718,0.48828125,-43.9453125,-13.18359375,-22.94921875,0.0
1690421346.199772,204.58984375,-48.33984375,-4.8828125,2.44140625,0.0
1690421346.2037625,-67.3828125,-46.38671875,-10.25390625,-8.30078125,0.0
1690421346.2076626,-245.60546875,-48.828125,-20.99609375,-34.1796875,0.0
1690421346.2115626,-94.23828125,-52.24609375,-28.3203125,-46.38671875,0.0
1690421346.2154627,207.51953125,-47.36328125,-31.25,-27.83203125,0.0
1690421346.2193627,32.2265625,-38.0859375,-27.83203125,-37.109375,0.0
1690421346.2232628,-248.53515625,-34.1796875,-15.13671875,-51.7578125,0.0
1690421346.2271628,-174.8046875,-45.41015625,-17.08984375,-51.26953125,0.0
1690421346.231063,151.3671875,-56.15234375,-31.73828125,-36.1328125,0.0
1690421346.234963,122.0703125,-57.6171875,-28.80859375,-34.66796875,0.0
1690421346.238863,-215.33203125,-50.29296875,-29.296875,-57.12890625,0.0
1690421346.242763,-223.6328125,-46.38671875,-30.76171875,-71.77734375,0.0
1690421346.246663,79.1015625,-44.43359375,-45.8984375,-56.640625,0.0
1690421346.2506442,197.75390625,-40.52734375,-47.36328125,-23.92578125,0.0
1690421346.2545443,-156.25,-41.9921875,-42.48046875,-60.05859375,0.0
1690421346.2584443,-234.86328125,-34.66796875,-50.29296875,-83.984375,0.0
1690421346.2623444,0.48828125,-32.71484375,-46.875,-59.5703125,0.0
1690421346.2662444,240.72265625,-36.1328125,-39.0625,-39.55078125,0.0
1690421346.2701445,-36.1328125,-34.66796875,-34.66796875,-54.19921875,0.0
1690421346.2740445,-249.0234375,-34.1796875,-38.0859375,-62.5,0.0
1690421346.2779446,-94.23828125,-33.69140625,-34.66796875,-44.43359375,0.0
1690421346.2818446,210.9375,-42.48046875,-33.69140625,-25.390625,0.0
1690421346.2857447,44.43359375,-42.96875,-31.73828125,-32.71484375,0.0
1690421346.2896447,-246.58203125,-39.55078125,-28.80859375,-48.828125,0.0
1690421346.2935448,-185.05859375,-48.33984375,-34.66796875,-52.734375,0.0
1690421346.2975225,138.671875,-51.7578125,-38.0859375,-24.4140625,0.0
1690421346.3014226,123.53515625,-49.31640625,-43.45703125,-25.87890625,0.0
1690421346.3053226,-231.4453125,-48.828125,-42.48046875,-62.98828125,0.0
1690421346.3092227,-262.20703125,-45.8984375,-32.71484375,-73.73046875,0.0
1690421346.3131227,29.296875,-38.0859375,-28.80859375,-50.29296875,0.0
1690421346.3170228,184.5703125,-36.62109375,-24.4140625,-31.25,0.0
1690421346.3209229,-162.109375,-45.41015625,-26.85546875,-59.5703125,0.0
1690421346.324823,-297.36328125,-48.828125,-31.73828125,-74.21875,0.0
1690421346.328723,-87.40234375,-45.8984375,-31.73828125,-62.01171875,0.0
1690421346.332623,187.98828125,-51.26953125,-26.3671875,-37.59765625,0.0
1690421346.336523,-69.3359375,-51.7578125,-27.83203125,-43.9453125,0.0
1690421346.340423,-294.43359375,-49.31640625,-35.64453125,-64.453125,0.0
1690421346.3443975,-157.71484375,-49.31640625,-30.2734375,-59.08203125,0.0
1690421346.3482976,169.43359375,-58.59375,-27.34375,-31.25,0.0
1690421346.3521976,45.41015625,-66.40625,-20.99609375,-26.3671875,0.0
1690421346.3560977,-254.8828125,-53.7109375,-19.04296875,-39.55078125,0.0
1690421346.3599977,-211.9140625,-42.48046875,-26.85546875,-68.359375,0.0
1690421346.3638978,90.33203125,-35.64453125,-32.2265625,-72.265625,0.0
1690421346.3677979,102.05078125,-35.15625,-43.9453125,-74.70703125,0.0
1690421346.371698,-241.69921875,-25.390625,-51.7578125,-98.14453125,0.0
1690421346.375598,-260.25390625,-29.296875,-57.6171875,-92.7734375,0.0
1690421346.379498,18.06640625,-35.15625,-62.98828125,-86.42578125,0.0
1690421346.3833983,194.3359375,-20.5078125,-75.1953125,-80.078125,0.0
1690421346.3872983,-148.92578125,-22.94921875,-83.49609375,-93.75,0.0
1690421346.3912704,-283.69140625,-33.69140625,-73.73046875,-110.83984375,0.0
1690421346.3951705,-57.12890625,-34.1796875,-67.87109375,-86.42578125,0.0
1690421346.3990705,228.02734375,-44.43359375,-74.21875,-55.17578125,0.0
1690421346.4029706,-16.11328125,-55.6640625,-74.21875,-84.47265625,0.0
1690421346.4068706,-267.08984375,-41.9921875,-70.3125,-97.65625,0.0
1690421346.4107707,-159.1796875,-26.85546875,-64.94140625,-81.54296875,0.0
1690421346.4146707,164.55078125,-28.3203125,-62.01171875,-62.5,0.0
1690421346.4185708,65.4296875,-28.80859375,-62.01171875,-57.12890625,0.0
1690421346.4224708,-246.09375,-36.1328125,-63.96484375,-68.84765625,0.0
1690421346.4263709,-200.1953125,-36.62109375,-61.03515625,-71.77734375,0.0
1690421346.430271,103.515625,-32.71484375,-59.08203125,-51.26953125,0.0
1690421346.434171,162.109375,-35.15625,-52.734375,-41.015625,0.0
1690421346.4381654,-171.38671875,-34.66796875,-48.828125,-58.10546875,0.0
1690421346.4420655,-228.02734375,-36.62109375,-56.640625,-50.78125,0.0
1690421346.4459655,34.1796875,-28.80859375,-51.26953125,-30.2734375,0.0
1690421346.4498656,254.8828125,-20.01953125,-39.55078125,-11.23046875,0.0
1690421346.4537656,-83.49609375,-35.64453125,-46.38671875,-29.296875,0.0
1690421346.4576657,-254.8828125,-44.921875,-50.78125,-40.0390625,0.0
1690421346.4615657,-51.26953125,-44.43359375,-57.6171875,-41.015625,0.0
1690421346.4654658,244.140625,-43.45703125,-55.6640625,-23.4375,0.0
1690421346.4693658,26.3671875,-44.43359375,-51.7578125,-26.3671875,0.0
1690421346.473266,-230.95703125,-41.015625,-49.31640625,-43.45703125,0.0
1690421346.477166,-126.46484375,-39.55078125,-50.29296875,-38.0859375,0.0
1690421346.481066,202.1484375,-41.9921875,-49.31640625,-0.9765625,0.0
1690421346.485057,145.5078125,-33.69140625,-40.0390625,9.27734375,0.0
1690421346.4889572,-166.9921875,-28.80859375,-45.8984375,-10.25390625,0.0
1690421346.4928572,-140.13671875,-23.92578125,-49.31640625,-2.9296875,0.0
1690421346.4967573,148.4375,-22.4609375,-39.0625,17.578125,0.0
1690421346.5006573,245.1171875,-30.2734375,-34.1796875,27.83203125,0.0
1690421346.5045574,-107.91015625,-37.109375,-35.64453125,0.48828125,0.0
1690421346.5084574,-174.8046875,-32.2265625,-31.73828125,-19.53125,0.0
1690421346.5123575,93.26171875,-26.3671875,-38.57421875,-0.9765625,0.0
1690421346.5162575,286.1328125,-24.4140625,-39.55078125,27.34375,0.0
1690421346.5201576,-5.859375,-31.25,-37.59765625,15.625,0.0
1690421346.5240576,-171.38671875,-41.50390625,-33.69140625,-10.7421875,0.0
1690421346.527958,-10.25390625,-41.50390625,-36.1328125,-3.90625,0.0
1690421346.5319452,297.36328125,-34.1796875,-37.109375,33.203125,0.0
1690421346.5358453,109.375,-26.85546875,-24.90234375,19.53125,0.0
1690421346.5397453,-178.22265625,-33.69140625,-25.390625,-10.25390625,0.0
1690421346.5436454,-91.30859375,-34.66796875,-39.55078125,-21.484375,0.0
1690421346.5475454,194.3359375,-33.69140625,-37.59765625,-1.953125,0.0
1690421346.5514455,136.71875,-36.1328125,-33.69140625,12.20703125,0.0
1690421346.5553455,-175.29296875,-39.0625,-31.73828125,-9.765625,0.0
1690421346.5592456,-195.3125,-35.64453125,-29.296875,-25.87890625,0.0
1690421346.5631459,104.00390625,-34.1796875,-44.43359375,-14.6484375,0.0
1690421346.567046,198.73046875,-42.48046875,-54.19921875,-6.8359375,0.0
1690421346.570946,-159.1796875,-54.19921875,-48.33984375,-31.73828125,0.0
1690421346.574846,-239.74609375,-46.875,-44.921875,-37.109375,0.0
1690421346.57883,11.23046875,-32.2265625,-41.9921875,-19.53125,0.0
1690421346.58273,259.27734375,-29.78515625,-40.0390625,-0.48828125,0.0
1690421346.58663,-39.0625,-44.921875,-46.38671875,-17.08984375,0.0
1690421346.5905302,-237.79296875,-45.41015625,-47.36328125,-36.62109375,0.0
1690421346.5944302,-89.35546875,-39.55078125,-40.0390625,-41.50390625,0.0
1690421346.5983303,204.58984375,-44.921875,-52.24609375,-18.5546875,0.0
1690421346.6022303,34.66796875,-51.7578125,-56.15234375,-27.83203125,0.0
1690421346.6061304,-250.0,-58.59375,-52.24609375,-44.43359375,0.0
1690421346.6100307,-179.6875,-57.6171875,-57.12890625,-32.71484375,0.0
1690421346.6139307,141.11328125,-46.38671875,-55.6640625,-11.71875,0.0
1690421346.6178308,139.16015625,-36.62109375,-40.0390625,0.0,0.0
1690421346.6217308,-187.5,-42.96875,-35.64453125,-18.5546875,0.0
1690421346.6257117,-170.41015625,-46.875,-43.9453125,-27.83203125,0.0
1690421346.6296117,78.61328125,-38.0859375,-43.9453125,-16.11328125,0.0
1690421346.6335118,190.4296875,-37.59765625,-41.50390625,-2.44140625,0.0
1690421346.6374118,-90.8203125,-32.71484375,-44.43359375,-19.53125,0.0
1690421346.641312,-183.59375,-24.4140625,-43.9453125,-21.484375,0.0
1690421346.6452122,12.6953125,-19.04296875,-40.0390625,-9.27734375,0.0
1690421346.6491122,262.20703125,-13.18359375,-48.828125,15.13671875,0.0
1690421346.6530123,30.2734375,-10.25390625,-60.546875,21.484375,0.0
1690421346.6569123,-176.26953125,-13.671875,-47.36328125,1.46484375,0.0
1690421346.6608124,-62.5,-20.99609375,-34.66796875,-12.20703125,0.0
1690421346.6647124,219.23828125,-27.34375,-32.2265625,2.9296875,0.0
1690421346.6686125,94.7265625,-40.0390625,-18.5546875,5.37109375,0.0
1690421346.67259,-210.9375,-50.78125,-13.671875,-16.11328125,0.0
1690421346.6764903,-174.31640625,-50.78125,-19.53125,-26.85546875,0.0
1690421346.6803904,130.37109375,-41.50390625,-16.6015625,-10.25390625,0.0
1690421346.6842904,137.20703125,-43.9453125,-15.625,-12.20703125,0.0
1690421346.6881905,-195.3125,-55.17578125,-22.94921875,-42.48046875,0.0
1690421346.6920905,-224.609375,-54.19921875,-25.87890625,-45.8984375,0.0
1690421346.6959906,31.25,-57.6171875,-22.94921875,-27.34375,0.0
1690421346.6998909,185.05859375,-59.08203125,-26.3671875,-10.7421875,0.0
1690421346.703791,-123.53515625,-57.12890625,-22.94921875,-35.15625,0.0
1690421346.707691,-242.1875,-59.08203125,-20.01953125,-39.55078125,0.0
1690421346.711591,-40.52734375,-48.828125,-26.3671875,-28.80859375,0.0
1690421346.715491,230.95703125,-41.9921875,-25.390625,-10.25390625,0.0
1690421346.7194653,-10.25390625,-39.55078125,-18.5546875,-16.6015625,0.0
1690421346.7233653,-255.37109375,-37.109375,-24.4140625,-36.1328125,0.0
1690421346.7272654,-134.27734375,-47.36328125,-32.2265625,-34.1796875,0.0
1690421346.7311654,186.03515625,-46.875,-35.15625,-11.23046875,0.0
1690421346.7350655,74.70703125,-42.96875,-38.57421875,-3.41796875,0.0
1690421346.7389655,-253.41796875,-51.26953125,-37.59765625,-36.1328125,0.0
1690421346.7428658,-207.03125,-56.15234375,-35.64453125,-44.43359375,0.0
1690421346.7467659,97.16796875,-56.15234375,-28.3203125,-12.20703125,0.0
1690421346.750666,154.78515625,-56.640625,-23.92578125,-1.46484375,0.0
1690421346.754566,-167.48046875,-50.78125,-26.85546875,-13.18359375,0.0
1690421346.758466,-215.33203125,-47.36328125,-33.69140625,-17.08984375,0.0
1690421346.762366,26.85546875,-51.26953125,-49.31640625,-20.5078125,0.0
1690421346.7663631,213.8671875,-58.10546875,-55.17578125,-7.8125,0.0
1690421346.7702632,-72.265625,-54.19921875,-47.36328125,-19.53125,0.0
1690421346.7741632,-216.796875,-41.9921875,-41.015625,-32.2265625,0.0
1690421346.7780633,-38.57421875,-37.59765625,-44.921875,-21.97265625,0.0
1690421346.7819636,209.47265625,-39.55078125,-51.7578125,-7.8125,0.0
1690421346.7858636,-3.90625,-44.921875,-42.96875,-28.3203125,0.0
1690421346.7897637,-233.3984375,-43.45703125,-34.66796875,-48.33984375,0.0
1690421346.7936637,-125.48828125,-34.66796875,-43.9453125,-46.875,0.0
1690421346.7975638,144.53125,-30.2734375,-45.41015625,-27.34375,0.0
1690421346.801464,68.84765625,-32.71484375,-38.57421875,-26.85546875,0.0
1690421346.8053641,-200.68359375,-31.73828125,-37.59765625,-49.8046875,0.0
1690421346.8092642,-175.78125,-39.55078125,-59.08203125,-51.7578125,0.0
1690421346.8132582,64.94140625,-40.52734375,-64.453125,-43.45703125,0.0
1690421346.8171582,132.32421875,-24.4140625,-36.62109375,-32.2265625,0.0
1690421346.8210583,-149.90234375,-26.85546875,-32.2265625,-44.43359375,0.0
1690421346.8249583,-218.75,-35.64453125,-30.76171875,-59.08203125,0.0
1690421346.8288584,0.9765625,-32.2265625,-22.94921875,-44.43359375,0.0
1690421346.8327587,166.015625,-30.2734375,-34.66796875,-36.62109375,0.0
1690421346.8366587,-104.4921875,-49.31640625,-45.8984375,-64.94140625,0.0
1690421346.8405588,-250.9765625,-65.4296875,-51.26953125,-84.9609375,0.0
1690421346.8444588,-108.3984375,-63.4765625,-52.734375,-85.44921875,0.0
1690421346.848359,131.8359375,-55.6640625,-46.875,-71.2890625,0.0
1690421346.8522592,-16.6015625,-48.33984375,-39.0625,-61.5234375,0.0
1690421346.8561592,-242.1875,-57.12890625,-53.7109375,-80.078125,0.0
1690421346.8601496,-174.31640625,-42.96875,-47.8515625,-67.87109375,0.0
1690421346.8640497,86.42578125,-24.90234375,-31.73828125,-57.12890625,0.0
1690421346.8679497,32.2265625,-34.1796875,-41.015625,-82.51953125,0.0
1690421346.8718498,-242.67578125,-42.48046875,-45.8984375,-93.75,0.0
1690421346.87575,-211.42578125,-32.71484375,-48.828125,-87.40234375,0.0
1690421346.87965,27.34375,-45.8984375,-59.5703125,-90.8203125,0.0
1690421346.8835502,79.58984375,-61.03515625,-63.96484375,-94.23828125,0.0
1690421346.8874502,-174.31640625,-38.0859375,-48.33984375,-74.21875,0.0
1690421346.8913505,-250.9765625,-41.50390625,-52.24609375,-84.47265625,0.0
1690421346.8952506,-62.98828125,-51.7578125,-59.08203125,-105.46875,0.0
1690421346.8991506,116.2109375,-44.921875,-55.17578125,-89.84375,0.0
1690421346.9030507,-121.58203125,-45.41015625,-63.96484375,-107.421875,0.0
1690421346.9070375,-245.60546875,-31.73828125,-44.921875,-99.609375,0.0
1690421346.9109375,-122.0703125,-40.0390625,-45.8984375,-76.171875,0.0
1690421346.9148378,103.02734375,-45.8984375,-54.19921875,-74.21875,0.0
1690421346.918738,-21.97265625,-33.203125,-43.45703125,-74.70703125,0.0
1690421346.922638,-256.8359375,-54.6875,-59.08203125,-104.98046875,0.0
1690421346.926538,-201.171875,-68.359375,-66.40625,-105.95703125,0.0
1690421346.9304383,34.66796875,-66.40625,-70.3125,-90.8203125,0.0
1690421346.9343383,7.32421875,-57.6171875,-59.08203125,-89.35546875,0.0
1690421346.9382384,-251.953125,-56.15234375,-54.19921875,-88.37890625,0.0
1690421346.9421384,-253.90625,-53.7109375,-57.6171875,-98.14453125,0.0
1690421346.9460387,-49.31640625,-49.31640625,-51.7578125,-109.375,0.0
1690421346.9499388,43.9453125,-47.36328125,-61.03515625,-104.98046875,0.0
1690421346.9539223,-199.70703125,-47.8515625,-65.91796875,-97.16796875,0.0
1690421346.9578226,-269.53125,-57.12890625,-52.734375,-83.0078125,0.0
1690421346.9617226,-90.33203125,-52.734375,-54.6875,-74.70703125,0.0
1690421346.9656227,81.54296875,-40.52734375,-47.36328125,-78.61328125,0.0
1690421346.9695227,-134.765625,-47.36328125,-36.1328125,-80.078125,0.0
1690421346.973423,-278.3203125,-53.7109375,-41.9921875,-79.58984375,0.0
1690421346.977323,-164.55078125,-45.41015625,-42.96875,-64.453125,0.0
1690421346.981223,58.10546875,-51.26953125,-41.50390625,-54.6875,0.0
1690421346.9851234,-50.78125,-61.5234375,-45.41015625,-65.91796875,0.0
1690421346.9890234,-245.60546875,-51.26953125,-46.875,-66.89453125,0.0
1690421346.9929235,-163.0859375,-39.55078125,-50.78125,-44.921875,0.0
1690421346.9968235,84.47265625,-41.015625,-60.546875,-41.9921875,0.0
1690421347.000804,60.546875,-48.33984375,-62.5,-57.6171875,0.0
1690421347.004704,-189.453125,-43.45703125,-45.8984375,-38.57421875,0.0
1690421347.0086043,-185.05859375,-37.109375,-41.9921875,-32.2265625,0.0
1690421347.0125043,17.08984375,-26.3671875,-39.55078125,-40.52734375,0.0
1690421347.0164044,116.2109375,-39.0625,-39.55078125,-41.015625,0.0
1690421347.0203047,-117.1875,-40.0390625,-46.875,-29.78515625,0.0
1690421347.0242047,-200.68359375,-45.41015625,-56.15234375,-36.62109375,0.0
1690421347.0281048,-49.8046875,-58.10546875,-51.7578125,-42.96875,0.0
1690421347.0320048,148.92578125,-46.875,-37.59765625,-26.85546875,0.0
1690421347.0359051,-16.11328125,-37.59765625,-36.1328125,-16.6015625,0.0
1690421347.0398052,-177.24609375,-43.45703125,-42.96875,-19.04296875,0.0
1690421347.0437052,-94.7265625,-52.734375,-44.921875,-31.25,0.0
1690421347.0476823,118.1640625,-41.50390625,-38.0859375,-31.73828125,0.0
1690421347.0515826,26.85546875,-31.25,-33.69140625,-23.92578125,0.0
1690421347.0554826,-198.73046875,-36.62109375,-35.15625,-26.3671875,0.0
1690421347.0593827,-175.29296875,-45.8984375,-34.1796875,-31.25,0.0
1690421347.063283,30.76171875,-48.828125,-34.1796875,-42.48046875,0.0
1690421347.067183,37.59765625,-41.015625,-32.71484375,-59.08203125,0.0
1690421347.071083,-204.1015625,-42.96875,-30.76171875,-49.8046875,0.0
1690421347.0749831,-208.984375,-45.41015625,-33.203125,-25.390625,0.0
1690421347.0788834,-11.23046875,-37.109375,-31.25,-25.87890625,0.0
1690421347.0827835,94.7265625,-38.0859375,-26.3671875,-47.8515625,0.0
1690421347.0866835,-145.5078125,-47.8515625,-21.484375,-48.828125,0.0
1690421347.0905838,-230.46875,-44.921875,-17.08984375,-66.40625,0.0
1690421347.094557,-91.30859375,-43.9453125,-19.04296875,-50.29296875,0.0
1690421347.0984573,86.9140625,-51.26953125,-21.484375,-34.1796875,0.0
1690421347.1023574,-100.09765625,-45.41015625,-43.45703125,-62.98828125,0.0
1690421347.1062574,-236.328125,-56.15234375,-52.734375,-41.50390625,0.0
1690421347.1101577,-150.390625,-56.15234375,-30.76171875,-67.87109375,0.0
1690421347.1140578,19.04296875,-52.734375,-38.0859375,-95.703125,0.0
1690421347.1179578,-7.32421875,-60.05859375,-37.109375,-20.5078125,0.0
1690421347.121858,-155.76171875,-45.41015625,-25.87890625,35.64453125,0.0
1690421347.1257582,-149.4140625,-31.73828125,-35.64453125,5.859375,0.0
1690421347.1296582,24.90234375,-26.3671875,-47.8515625,-32.2265625,0.0
1690421347.1335583,62.98828125,-28.3203125,-60.05859375,-52.24609375,0.0
1690421347.1374586,-161.62109375,-27.83203125,-57.6171875,-38.57421875,0.0
1690421347.1414547,-156.73828125,-24.90234375,-53.7109375,-7.8125,0.0
1690421347.1453547,12.6953125,-22.94921875,-58.10546875,-16.6015625,0.0
1690421347.149255,123.53515625,-20.99609375,-61.5234375,-29.78515625,0.0
1690421347.153155,-60.546875,-18.5546875,-61.5234375,3.90625,0.0
1690421347.1570551,-132.8125,-17.578125,-60.05859375,35.15625,0.0
1690421347.1609554,2.44140625,-11.23046875,-50.78125,46.38671875,0.0
1690421347.1648555,198.73046875,-7.8125,-44.43359375,43.45703125,0.0
1690421347.1687555,67.3828125,-11.23046875,-46.875,36.62109375,0.0
1690421347.1726558,-118.65234375,-8.7890625,-42.96875,45.41015625,0.0
1690421347.1765559,-67.87109375,-6.34765625,-37.59765625,51.7578125,0.0
1690421347.180456,140.625,-9.765625,-35.64453125,35.15625,0.0
1690421347.1843562,94.23828125,-15.625,-41.015625,34.1796875,0.0
1690421347.1883495,-103.02734375,-20.01953125,-42.48046875,50.29296875,0.0
1690421347.1922495,-78.61328125,-22.4609375,-37.109375,52.24609375,0.0
1690421347.1961498,118.1640625,-21.484375,-31.25,42.48046875,0.0
1690421347.2000499,180.17578125,-14.16015625,-28.80859375,33.69140625,0.0
1690421347.20395,-29.296875,-14.6484375,-31.73828125,51.7578125,0.0
1690421347.2078502,-60.05859375,-18.5546875,-34.66796875,57.12890625,0.0
1690421347.2117503,107.421875,-19.53125,-38.57421875,41.015625,0.0
1690421347.2156503,261.71875,-16.6015625,-24.4140625,29.78515625,0.0
1690421347.2195506,74.21875,-20.5078125,-23.4375,41.9921875,0.0
1690421347.2234507,-23.92578125,-24.90234375,-30.2734375,63.4765625,0.0
1690421347.227351,114.74609375,-17.578125,-29.78515625,66.89453125,0.0
1690421347.231251,309.5703125,-15.625,-35.15625,48.828125,0.0
1690421347.2352407,185.05859375,-17.578125,-36.62109375,51.7578125,0.0
1690421347.239141,-10.7421875,-24.90234375,-38.57421875,53.7109375,0.0
1690421347.243041,10.7421875,-28.80859375,-42.48046875,39.0625,0.0
1690421347.246941,191.40625,-26.3671875,-35.15625,31.25,0.0
1690421347.2508414,154.78515625,-28.80859375,-23.92578125,29.78515625,0.0
1690421347.2547414,-81.0546875,-29.296875,-25.87890625,33.203125,0.0
1690421347.2586417,-90.33203125,-33.203125,-32.2265625,27.34375,0.0
1690421347.2625418,90.33203125,-33.203125,-30.2734375,0.9765625,0.0
1690421347.2664418,166.50390625,-33.69140625,-28.3203125,5.859375,0.0
1690421347.270342,-54.6875,-44.43359375,-26.85546875,30.2734375,0.0
1690421347.2742422,-127.9296875,-44.921875,-23.4375,19.04296875,0.0
1690421347.2781422,17.08984375,-35.15625,-29.296875,6.8359375,0.0
1690421347.2821288,165.0390625,-39.0625,-36.62109375,-13.18359375,0.0
1690421347.2860289,-35.15625,-45.8984375,-44.921875,-12.20703125,0.0
1690421347.2899292,-177.24609375,-41.015625,-48.33984375,-3.41796875,0.0
1690421347.2938292,-76.171875,-36.62109375,-46.38671875,-17.08984375,0.0
1690421347.2977293,97.65625,-34.1796875,-47.36328125,-39.0625,0.0
1690421347.3016295,-13.18359375,-34.1796875,-46.875,-30.2734375,0.0
1690421347.3055296,-162.109375,-31.73828125,-43.9453125,-1.46484375,0.0
1690421347.30943,-126.953125,-28.80859375,-45.41015625,-14.16015625,0.0
1690421347.31333,54.19921875,-31.73828125,-42.96875,-48.33984375,0.0
1690421347.31723,53.22265625,-32.2265625,-41.50390625,-50.29296875,0.0
1690421347.3211303,-156.73828125,-42.48046875,-46.38671875,-28.3203125,0.0
1690421347.3250303,-158.203125,-48.33984375,-40.0390625,-14.16015625,0.0
1690421347.3290133,32.71484375,-28.3203125,-38.0859375,-27.34375,0.0
1690421347.3329134,105.95703125,-14.6484375,-44.43359375,-63.4765625,0.0
1690421347.3368134,-124.0234375,-23.92578125,-50.78125,-68.84765625,0.0
1690421347.3407137,-182.6171875,-25.87890625,-54.19921875,-65.4296875,0.0
1690421347.3446138,-50.29296875,-22.4609375,-53.7109375,-73.73046875,0.0
1690421347.348514,85.9375,-24.4140625,-53.7109375,-83.0078125,0.0
1690421347.3524141,-74.21875,-23.92578125,-58.10546875,-67.3828125,0.0
1690421347.3563142,-190.4296875,-22.94921875,-59.5703125,-51.26953125,0.0
1690421347.3602145,-109.86328125,-24.90234375,-64.94140625,-65.91796875,0.0
1690421347.3641145,76.171875,-25.87890625,-62.01171875,-99.609375,0.0
1690421347.3680148,-13.671875,-31.25,-62.01171875,-90.33203125,0.0
1690421347.3719149,-196.2890625,-40.52734375,-62.98828125,-58.59375,0.0
1690421347.3758943,-141.6015625,-36.1328125,-50.78125,-53.22265625,0.0
1690421347.3797946,28.80859375,-30.2734375,-55.6640625,-88.37890625,0.0
1690421347.3836946,40.52734375,-21.97265625,-52.24609375,-91.30859375,0.0
1690421347.387595,-166.50390625,-26.85546875,-42.48046875,-51.7578125,0.0
1690421347.391495,-166.015625,-36.62109375,-39.55078125,-50.78125,0.0
1690421347.3953953,23.92578125,-37.59765625,-39.55078125,-77.1484375,0.0
1690421347.3992953,103.515625,-41.015625,-46.38671875,-85.9375,0.0
1690421347.4031954,-112.79296875,-52.734375,-39.55078125,-50.78125,0.0
1690421347.4070957,-185.546875,-44.921875,-31.73828125,-45.41015625,0.0
1690421347.4109957,-45.8984375,-37.59765625,-38.0859375,-83.0078125,0.0
1690421347.414896,105.46875,-39.0625,-47.8515625,-111.328125,0.0
1690421347.418796,-28.3203125,-39.55078125,-65.4296875,-89.35546875,0.0
1690421347.4227726,-147.94921875,-40.0390625,-60.546875,-63.4765625,0.0
1690421347.4266727,-84.9609375,-31.73828125,-48.33984375,-72.265625,0.0
1690421347.430573,118.65234375,-27.34375,-45.41015625,-99.609375,0.0
1690421347.434473,81.0546875,-34.66796875,-44.43359375,-81.54296875,0.0
1690421347.4383733,-119.62890625,-35.15625,-46.875,-39.0625,0.0
1690421347.4422734,-99.609375,-31.25,-48.33984375,-49.31640625,0.0
1690421347.4461734,85.9375,-31.73828125,-49.8046875,-95.21484375,0.0
1690421347.4500737,136.71875,-28.3203125,-45.41015625,-94.23828125,0.0
1690421347.4539738,-74.70703125,-30.2734375,-51.7578125,-63.4765625,0.0
1690421347.457874,-135.7421875,-44.43359375,-63.96484375,-69.82421875,0.0
1690421347.461774,26.85546875,-45.41015625,-52.24609375,-96.19140625,0.0
1690421347.4656744,174.31640625,-28.3203125,-54.6875,-114.2578125,0.0
1690421347.4696474,-16.11328125,-24.4140625,-69.82421875,-84.9609375,0.0
1690421347.4735475,-128.90625,-44.43359375,-55.6640625,-57.6171875,0.0
1690421347.4774477,-31.73828125,-46.38671875,-53.22265625,-76.66015625,0.0
1690421347.4813478,157.2265625,-35.64453125,-54.6875,-109.86328125,0.0
1690421347.485248,30.76171875,-38.57421875,-55.6640625,-81.54296875,0.0
1690421347.4891481,-124.0234375,-34.1796875,-52.24609375,-34.66796875,0.0
1690421347.4930484,-67.3828125,-36.62109375,-48.33984375,-58.59375,0.0
1690421347.4969485,116.69921875,-49.31640625,-60.05859375,-113.28125,0.0
1690421347.5008485,90.8203125,-49.8046875,-57.6171875,-100.5859375,0.0
1690421347.5047488,-105.46875,-47.8515625,-49.8046875,-55.6640625,0.0
1690421347.5086489,-95.703125,-50.29296875,-51.7578125,-49.31640625,0.0
1690421347.5125492,96.6796875,-53.22265625,-52.734375,-83.984375,0.0
1690421347.5165198,184.08203125,-46.38671875,-53.7109375,-90.33203125,0.0
1690421347.52042,-31.73828125,-43.45703125,-49.31640625,-38.57421875,0.0
1690421347.5243201,-96.19140625,-51.7578125,-47.8515625,-20.01953125,0.0
1690421347.5282204,64.94140625,-54.6875,-46.875,-53.7109375,0.0
1690421347.5321205,213.8671875,-54.6875,-49.8046875,-78.125,0.0
1690421347.5360208,36.62109375,-47.36328125,-50.29296875,-37.109375,0.0
1690421347.5399208,-78.125,-43.45703125,-41.50390625,4.8828125,0.0
1690421347.543821,20.01953125,-41.015625,-38.57421875,-14.6484375,0.0
1690421347.5477211,220.21484375,-33.203125,-39.0625,-64.94140625,0.0
1690421347.5516214,117.67578125,-36.62109375,-38.0859375,-31.73828125,0.0
1690421347.5555215,-68.84765625,-40.0390625,-40.52734375,11.71875,0.0
1690421347.5594215,-31.73828125,-41.015625,-41.9921875,-7.8125,0.0
1690421347.5634146,175.29296875,-36.62109375,-41.9921875,-45.41015625,0.0
1690421347.5673149,178.22265625,-40.52734375,-43.45703125,-27.83203125,0.0
1690421347.571215,-28.80859375,-41.015625,-45.41015625,22.94921875,0.0
1690421347.575115,-45.41015625,-25.390625,-50.78125,12.20703125,0.0
1690421347.5790153,120.60546875,-15.625,-45.41015625,-36.1328125,0.0
1690421347.5829153,207.03125,-23.92578125,-38.57421875,-35.15625,0.0
1690421347.5868156,-9.27734375,-28.80859375,-35.64453125,19.04296875,0.0
1690421347.5907156,-83.49609375,-21.484375,-25.87890625,34.1796875,0.0
1690421347.594616,56.640625,-22.94921875,-33.203125,-2.9296875,0.0
1690421347.598516,202.1484375,-31.73828125,-41.50390625,-42.48046875,0.0
1690421347.6024163,20.5078125,-41.015625,-47.8515625,-3.90625,0.0
1690421347.6063163,-138.18359375,-51.7578125,-56.15234375,16.11328125,0.0
1690421347.6103058,-57.6171875,-41.50390625,-43.9453125,-18.5546875,0.0
1690421347.614206,153.3203125,-35.15625,-36.1328125,-61.03515625,0.0
1690421347.6181061,70.80078125,-33.69140625,-27.83203125,-25.390625,0.0
1690421347.6220064,-126.953125,-25.390625,-23.4375,22.94921875,0.0
1690421347.6259065,-103.02734375,-37.109375,-31.73828125,4.39453125,0.0
1690421347.6298068,87.40234375,-48.828125,-29.78515625,-48.828125,0.0
1690421347.6337068,101.5625,-46.38671875,-28.80859375,-45.41015625,0.0
1690421347.637607,-104.4921875,-46.38671875,-40.52734375,0.9765625,0.0
1690421347.6415071,-148.4375,-52.24609375,-40.52734375,3.41796875,0.0
1690421347.6454074,32.2265625,-47.36328125,-30.76171875,-22.94921875,0.0
1690421347.6493075,153.80859375,-49.31640625,-27.34375,-45.8984375,0.0
1690421347.6532078,-65.91796875,-64.453125,-25.87890625,-0.48828125,0.0
1690421347.657194,-159.66796875,-57.6171875,-25.87890625,14.6484375,0.0
1690421347.661094,-31.25,-48.33984375,-33.69140625,-28.3203125,0.0
1690421347.6649942,156.73828125,-52.24609375,-35.15625,-62.5,0.0
1690421347.6688943,0.9765625,-50.78125,-35.64453125,-26.85546875,0.0
1690421347.6727946,-167.96875,-35.15625,-28.80859375,15.13671875,0.0
1690421347.6766946,-97.65625,-33.69140625,-29.78515625,-1.953125,0.0
1690421347.680595,117.67578125,-46.875,-39.0625,-52.24609375,0.0
1690421347.6844952,53.22265625,-47.8515625,-34.66796875,-28.80859375,0.0
1690421347.6883953,-169.43359375,-46.875,-35.64453125,15.13671875,0.0
1690421347.6922956,-160.15625,-51.7578125,-45.41015625,-9.765625,0.0
1690421347.6961956,64.453125,-47.8515625,-45.41015625,-59.5703125,0.0
1690421347.700096,107.421875,-41.50390625,-40.52734375,-52.24609375,0.0
1690421347.7040784,-118.65234375,-28.80859375,-33.203125,14.6484375,0.0
1690421347.7079787,-152.34375,-34.1796875,-32.2265625,25.87890625,0.0
1690421347.7118788,14.16015625,-61.03515625,-47.8515625,-31.73828125,0.0
1690421347.715779,150.87890625,-48.33984375,-49.8046875,-55.6640625,0.0
1690421347.7196794,-61.5234375,-31.25,-47.8515625,-4.8828125,0.0
1690421347.7235794,-185.546875,-38.0859375,-49.31640625,7.32421875,0.0
1690421347.7274797,-58.10546875,-37.109375,-43.9453125,-26.3671875,0.0
1690421347.7313797,159.66796875,-28.80859375,-37.109375,-48.33984375,0.0
1690421347.73528,10.25390625,-30.2734375,-36.62109375,-14.16015625,0.0
1690421347.73918,-191.40625,-38.57421875,-41.9921875,6.8359375,0.0
1690421347.7430804,-112.3046875,-39.0625,-47.36328125,-11.71875,0.0
1690421347.7469804,123.046875,-38.0859375,-53.22265625,-60.546875,0.0
1690421347.7509599,69.3359375,-32.71484375,-50.78125,-36.62109375,0.0
1690421347.75486,-158.203125,-26.85546875,-39.55078125,17.578125,0.0
1690421347.7587602,-146.484375,-35.64453125,-30.2734375,5.37109375,0.0
1690421347.7626603,60.546875,-42.48046875,-28.3203125,-42.96875,0.0
1690421347.7665606,112.3046875,-38.0859375,-29.296875,-57.12890625,0.0
1690421347.7704608,-131.34765625,-39.0625,-33.69140625,-5.859375,0.0
1690421347.774361,-181.640625,-35.64453125,-34.1796875,14.16015625,0.0
1690421347.7782612,7.32421875,-38.0859375,-31.25,-19.04296875,0.0
1690421347.7821612,166.9921875,-29.296875,-34.1796875,-45.8984375,0.0
1690421347.7860615,-43.45703125,-24.4140625,-34.66796875,-6.8359375,0.0
1690421347.7899616,-171.875,-32.2265625,-41.015625,23.4375,0.0
1690421347.7938619,-43.9453125,-42.48046875,-40.0390625,-1.953125,0.0
1690421347.7978382,167.48046875,-47.8515625,-33.69140625,-41.50390625,0.0
1690421347.8017383,25.87890625,-33.203125,-28.3203125,-18.06640625,0.0
1690421347.8056386,-170.41015625,-36.1328125,-26.85546875,18.06640625,0.0
1690421347.8095386,-101.07421875,-42.48046875,-26.85546875,4.39453125,0.0
1690421347.813439,115.72265625,-41.015625,-26.85546875,-41.9921875,0.0
1690421347.8173392,81.54296875,-41.50390625,-31.25,-23.92578125,0.0
1690421347.8212392,-141.11328125,-45.41015625,-29.78515625,20.01953125,0.0
1690421347.8251395,-146.97265625,-43.45703125,-20.5078125,12.20703125,0.0
1690421347.8290396,65.91796875,-38.57421875,-22.4609375,-40.0390625,0.0
1690421347.8329399,159.66796875,-21.484375,-27.83203125,-37.109375,0.0
1690421347.83684,-80.56640625,-25.390625,-36.1328125,16.11328125,0.0
1690421347.8407402,-153.80859375,-30.76171875,-35.15625,9.765625,0.0
1690421347.8447132,13.671875,-30.2734375,-35.64453125,-28.3203125,0.0
1690421347.8486135,162.59765625,-44.921875,-50.78125,-70.3125,0.0
1690421347.8525138,-41.015625,-42.48046875,-42.96875,-31.73828125,0.0
1690421347.8564138,-192.3828125,-42.48046875,-43.45703125,-11.23046875,0.0
1690421347.8603141,-84.47265625,-44.921875,-41.9921875,-40.0390625,0.0
1690421347.8642142,141.6015625,-44.921875,-34.1796875,-67.87109375,0.0
1690421347.8681145,24.4140625,-41.015625,-31.73828125,-34.1796875,0.0
1690421347.8720148,-185.546875,-37.59765625,-29.78515625,-1.953125,0.0
1690421347.8759148,-133.7890625,-33.69140625,-31.25,-18.5546875,0.0
1690421347.879815,93.75,-39.0625,-52.24609375,-65.91796875,0.0
1690421347.8837152,89.35546875,-41.9921875,-51.7578125,-53.22265625,0.0
1690421347.8876154,-157.71484375,-39.0625,-36.1328125,0.0,0.0
1690421347.891585,-191.40625,-41.9921875,-30.76171875,-8.7890625,0.0
1690421347.8954852,22.4609375,-43.9453125,-30.2734375,-62.98828125,0.0
1690421347.8993855,126.953125,-53.22265625,-31.25,-78.125,0.0
1690421347.9032857,-121.58203125,-59.08203125,-25.390625,-18.5546875,0.0
1690421347.9071858,-205.56640625,-53.22265625,-27.83203125,3.90625,0.0
1690421347.911086,-34.1796875,-52.24609375,-31.73828125,-21.484375,0.0
1690421347.9149861,157.2265625,-54.6875,-30.76171875,-43.45703125,0.0
1690421347.9188864,-37.109375,-55.17578125,-26.85546875,-17.08984375,0.0
1690421347.9227867,-207.51953125,-55.6640625,-23.4375,0.0,0.0
1690421347.9266868,-101.07421875,-56.640625,-30.76171875,-5.37109375,0.0
1690421347.930587,143.5546875,-56.15234375,-41.015625,-49.31640625,0.0
1690421347.934487,40.0390625,-46.38671875,-25.390625,-23.4375,0.0
1690421347.9384792,-187.98828125,-41.9921875,-20.5078125,26.3671875,0.0
1690421347.9423795,-145.01953125,-39.0625,-26.85546875,20.01953125,0.0
1690421347.9462795,95.21484375,-34.1796875,-17.578125,-19.04296875,0.0
1690421347.9501798,114.74609375,-34.66796875,-20.5078125,-20.5078125,0.0
1690421347.95408,-153.3203125,-41.015625,-29.296875,20.99609375,0.0
1690421347.9579802,-195.3125,-40.52734375,-25.87890625,19.04296875,0.0
1690421347.9618804,22.94921875,-28.80859375,-28.80859375,-21.484375,0.0
1690421347.9657805,144.53125,-31.73828125,-47.8515625,-45.41015625,0.0
1690421347.9696808,-111.328125,-30.2734375,-39.55078125,-9.765625,0.0
1690421347.973581,-216.796875,-26.85546875,-22.94921875,-0.48828125,0.0
1690421347.9774811,-58.59375,-38.57421875,-38.0859375,-41.015625,0.0
1690421347.9813814,150.390625,-39.55078125,-39.55078125,-78.125,0.0
1690421347.9853704,-37.59765625,-37.109375,-32.71484375,-31.25,0.0
1690421347.9892704,-227.05078125,-38.0859375,-35.64453125,-6.8359375,0.0
1690421347.9931707,-118.1640625,-31.25,-27.83203125,-38.0859375,0.0
1690421347.997071,130.859375,-32.71484375,-29.296875,-77.63671875,0.0
1690421348.000971,28.80859375,-41.015625,-41.015625,-53.7109375,0.0
1690421348.0048714,-226.5625,-39.0625,-39.55078125,-17.08984375,0.0
1690421348.0087714,-204.1015625,-37.109375,-30.2734375,-20.99609375,0.0
1690421348.0126717,41.9921875,-37.109375,-32.71484375,-67.3828125,0.0
1690421348.016572,80.078125,-28.80859375,-33.203125,-70.80078125,0.0
1690421348.020472,-191.89453125,-31.73828125,-29.296875,-20.5078125,0.0
1690421348.0243723,-251.953125,-40.0390625,-31.73828125,-26.3671875,0.0
1690421348.0282726,-29.296875,-34.1796875,-35.15625,-59.5703125,0.0
1690421348.0322583,138.671875,-35.15625,-41.015625,-66.89453125,0.0
1690421348.0361586,-115.72265625,-39.55078125,-36.1328125,-28.80859375,0.0
1690421348.0400589,-254.39453125,-40.52734375,-41.9921875,-13.671875,0.0
1690421348.043959,-95.21484375,-51.7578125,-37.109375,-33.203125,0.0
1690421348.0478592,147.94921875,-58.10546875,-36.1328125,-75.68359375,0.0
1690421348.0517595,-33.69140625,-50.78125,-54.19921875,-45.8984375,0.0
1690421348.0556595,-263.18359375,-59.08203125,-49.8046875,-15.625,0.0
1690421348.0595598,-182.6171875,-66.89453125,-37.109375,-40.0390625,0.0
1690421348.06346,97.16796875,-59.08203125,-32.2265625,-68.84765625,0.0
1690421348.0673602,47.36328125,-45.8984375,-34.66796875,-29.296875,0.0
1690421348.0712605,-195.80078125,-44.43359375,-36.1328125,26.3671875,0.0
1690421348.0751607,-198.73046875,-55.17578125,-20.5078125,2.44140625,0.0
1690421348.0791428,19.53125,-60.546875,-11.23046875,-56.15234375,0.0
1690421348.083043,82.51953125,-65.4296875,-13.671875,-47.8515625,0.0
1690421348.0869434,-181.640625,-67.3828125,-8.7890625,8.30078125,0.0
1690421348.0908434,-241.2109375,-71.2890625,-12.6953125,1.953125,0.0
1690421348.0947437,-25.390625,-72.265625,-19.04296875,-32.71484375,0.0
1690421348.098644,141.6015625,-72.75390625,-16.6015625,-55.6640625,0.0
1690421348.102544,-105.46875,-67.87109375,-13.671875,-15.13671875,0.0
1690421348.1064444,-246.58203125,-68.359375,-16.11328125,0.0,0.0
1690421348.1103446,-91.796875,-70.3125,-18.5546875,-24.4140625,0.0
1690421348.1142447,172.36328125,-62.01171875,-25.390625,-42.48046875,0.0
1690421348.118145,23.92578125,-55.17578125,-24.90234375,-18.06640625,0.0
1690421348.1220453,-205.078125,-59.08203125,-20.5078125,3.90625,0.0
1690421348.126024,-146.97265625,-72.265625,-38.57421875,-18.5546875,0.0
1690421348.1299243,129.39453125,-62.98828125,-38.57421875,-52.24609375,0.0
1690421348.1338246,82.51953125,-69.3359375,-34.66796875,-36.62109375,0.0
1690421348.1377246,-195.80078125,-76.66015625,-51.26953125,-12.6953125,0.0
1690421348.141625,-175.29296875,-62.5,-43.9453125,-22.4609375,0.0
1690421348.1455252,96.6796875,-50.29296875,-27.34375,-36.62109375,0.0
1690421348.1494253,180.17578125,-47.36328125,-19.04296875,-29.296875,0.0
1690421348.1533256,-117.67578125,-51.7578125,-20.5078125,-1.953125,0.0
1690421348.1572258,-200.1953125,-47.8515625,-27.83203125,-11.71875,0.0
1690421348.161126,-1.46484375,-41.015625,-30.76171875,-44.43359375,0.0
1690421348.1650262,163.0859375,-50.29296875,-37.59765625,-70.3125,0.0
1690421348.1689265,-73.2421875,-50.78125,-43.9453125,-34.1796875,0.0
1690421348.172902,-221.19140625,-42.96875,-39.55078125,-7.32421875,0.0
1690421348.1768022,-93.26171875,-46.875,-32.71484375,-30.76171875,0.0
1690421348.1807024,158.203125,-39.55078125,-35.15625,-63.4765625,0.0
1690421348.1846027,9.765625,-40.52734375,-38.0859375,-34.1796875,0.0
1690421348.1885028,-238.28125,-45.8984375,-50.78125,-14.6484375,0.0
1690421348.192403,-171.875,-41.50390625,-43.9453125,-35.64453125,0.0
1690421348.1963034,105.46875,-40.52734375,-23.4375,-60.05859375,0.0
1690421348.2002037,93.75,-36.1328125,-27.83203125,-36.62109375,0.0
1690421348.2041037,-183.59375,-40.0390625,-32.71484375,8.30078125,0.0
1690421348.208004,-204.58984375,-48.33984375,-30.2734375,-7.8125,0.0
1690421348.2119043,35.15625,-43.9453125,-31.73828125,-42.96875,0.0
1690421348.2158043,144.53125,-42.48046875,-37.59765625,-45.41015625,0.0
1690421348.2197769,-108.88671875,-40.0390625,-36.1328125,-16.11328125,0.0
1690421348.2236772,-181.640625,-33.203125,-36.62109375,-7.8125,0.0
1690421348.2275774,10.25390625,-36.1328125,-41.50390625,-36.62109375,0.0
1690421348.2314777,213.37890625,-44.43359375,-34.66796875,-54.19921875,0.0
1690421348.2353778,-1.46484375,-38.57421875,-33.69140625,-16.11328125,0.0
1690421348.239278,-183.10546875,-35.64453125,-46.875,-5.859375,0.0
1690421348.2431784,-66.40625,-40.0390625,-41.015625,-19.53125,0.0
1690421348.2470784,192.87109375,-27.83203125,-26.85546875,-35.64453125,0.0
1690421348.2509787,66.89453125,-22.4609375,-34.1796875,-19.04296875,0.0
1690421348.254879,-169.921875,-32.71484375,-42.48046875,6.34765625,0.0
1690421348.2587793,-122.0703125,-34.1796875,-41.015625,-1.46484375,0.0
1690421348.2626793,111.328125,-32.71484375,-34.66796875,-36.1328125,0.0
1690421348.2666495,104.98046875,-31.73828125,-23.92578125,-31.25,0.0
1690421348.2705495,-161.1328125,-31.73828125,-30.2734375,3.41796875,0.0
1690421348.2744498,-190.4296875,-37.109375,-37.109375,-7.8125,0.0
1690421348.27835,24.4140625,-48.33984375,-30.2734375,-44.921875,0.0
1690421348.2822504,136.23046875,-51.7578125,-30.2734375,-51.7578125,0.0
1690421348.2861505,-123.046875,-53.7109375,-42.96875,-20.01953125,0.0
1690421348.2900507,-215.33203125,-53.7109375,-43.9453125,-14.6484375,0.0
1690421348.293951,-32.2265625,-42.96875,-35.64453125,-42.96875,0.0
1690421348.2978513,171.875,-46.875,-30.76171875,-64.94140625,0.0
1690421348.3017514,-43.45703125,-52.24609375,-25.390625,-37.109375,0.0
1690421348.3056517,-225.09765625,-53.22265625,-25.390625,-20.01953125,0.0
1690421348.309552,-116.2109375,-59.5703125,-34.66796875,-40.0390625,0.0
1690421348.3135438,137.6953125,-58.10546875,-36.62109375,-60.05859375,0.0
1690421348.317444,36.62109375,-54.6875,-32.71484375,-41.015625,0.0
1690421348.3213441,-216.796875,-49.8046875,-36.62109375,-31.73828125,0.0
1690421348.3252444,-184.08203125,-44.921875,-35.64453125,-34.1796875,0.0
1690421348.3291447,71.77734375,-41.50390625,-38.0859375,-58.10546875,0.0
1690421348.333045,93.26171875,-33.69140625,-40.0390625,-58.10546875,0.0
1690421348.336945,-182.6171875,-33.69140625,-35.15625,-18.5546875,0.0
1690421348.3408453,-220.21484375,-44.921875,-37.59765625,-31.25,0.0
1690421348.3447456,-3.90625,-52.734375,-36.62109375,-64.453125,0.0
1690421348.348646,135.7421875,-52.24609375,-44.921875,-70.80078125,0.0
1690421348.352546,-115.234375,-39.0625,-52.24609375,-55.6640625,0.0
1690421348.3564463,-228.515625,-25.87890625,-41.9921875,-46.38671875,0.0
1690421348.3604348,-56.640625,-24.90234375,-38.0859375,-51.26953125,0.0
1690421348.3643348,167.48046875,-31.73828125,-40.0390625,-68.359375,0.0
1690421348.368235,-26.3671875,-37.109375,-43.9453125,-52.24609375,0.0
1690421348.3721354,-223.14453125,-40.0390625,-46.875,-36.1328125,0.0
1690421348.3760357,-133.30078125,-35.15625,-47.8515625,-39.55078125,0.0
1690421348.3799357,128.41796875,-35.64453125,-47.36328125,-59.5703125,0.0
1690421348.383836,55.17578125,-42.96875,-51.7578125,-55.6640625,0.0
1690421348.3877363,-194.82421875,-40.52734375,-48.828125,-31.25,0.0
1690421348.3916366,-174.8046875,-40.0390625,-42.48046875,-37.109375,0.0
1690421348.3955367,71.77734375,-34.66796875,-44.43359375,-52.24609375,0.0
1690421348.399437,128.90625,-24.4140625,-42.96875,-40.0390625,0.0
1690421348.4033372,-156.25,-25.87890625,-39.0625,-29.296875,0.0
1690421348.4073222,-218.26171875,-34.66796875,-48.33984375,-47.8515625,0.0
1690421348.4112225,11.23046875,-41.50390625,-47.8515625,-57.12890625,0.0
1690421348.4151225,183.59375,-33.203125,-40.0390625,-48.33984375,0.0
1690421348.4190228,-76.171875,-30.2734375,-40.52734375,-33.69140625,0.0
1690421348.422923,-208.0078125,-35.15625,-37.59765625,-35.15625,0.0
1690421348.4268234,-46.875,-32.2265625,-40.52734375,-43.45703125,0.0
1690421348.4307237,171.38671875,-40.52734375,-51.7578125,-51.26953125,0.0
1690421348.4346237,-13.18359375,-46.38671875,-41.9921875,-43.45703125,0.0
1690421348.438524,-234.86328125,-40.52734375,-38.0859375,-40.0390625,0.0
1690421348.4424243,-157.2265625,-39.0625,-43.9453125,-53.22265625,0.0
1690421348.4463246,117.67578125,-36.62109375,-39.55078125,-59.5703125,0.0
1690421348.4502249,67.3828125,-43.45703125,-42.96875,-46.875,0.0
1690421348.4542065,-206.54296875,-55.6640625,-46.38671875,-38.57421875,0.0
1690421348.4581068,-199.70703125,-42.96875,-39.55078125,-41.50390625,0.0
1690421348.4620068,62.01171875,-27.34375,-29.78515625,-50.78125,0.0
1690421348.465907,135.25390625,-28.80859375,-36.1328125,-44.921875,0.0
1690421348.4698074,-151.3671875,-30.2734375,-62.5,-35.64453125,0.0
1690421348.4737077,-218.26171875,-34.66796875,-56.640625,-42.48046875,0.0
1690421348.477608,-9.765625,-45.41015625,-20.99609375,-49.8046875,0.0
1690421348.481508,174.31640625,-51.26953125,-20.99609375,-49.8046875,0.0
1690421348.4854083,-74.70703125,-49.31640625,-37.59765625,-35.15625,0.0
1690421348.4893086,-229.98046875,-46.875,-41.9921875,-33.203125,0.0
1690421348.493209,-76.66015625,-49.8046875,-30.76171875,-47.8515625,0.0
1690421348.4971092,179.6875,-41.9921875,-20.99609375,-43.9453125,0.0
1690421348.5010874,24.4140625,-35.64453125,-26.3671875,-30.76171875,0.0
1690421348.5049877,-207.03125,-40.0390625,-34.66796875,-27.83203125,0.0
1690421348.508888,-117.67578125,-35.64453125,-34.1796875,-24.4140625,0.0
1690421348.5127883,168.9453125,-37.109375,-30.2734375,-12.20703125,0.0
1690421348.5166883,129.39453125,-50.29296875,-28.3203125,-11.23046875,0.0
1690421348.5205886,-178.7109375,-54.6875,-31.73828125,-34.66796875,0.0
1690421348.524489,-205.078125,-53.22265625,-34.1796875,-47.36328125,0.0
1690421348.5283892,49.8046875,-48.828125,-29.78515625,-32.71484375,0.0
1690421348.5322895,148.4375,-54.6875,-23.92578125,-28.3203125,0.0
1690421348.5361898,-141.6015625,-62.98828125,-20.5078125,-45.41015625,0.0
1690421348.5400898,-230.95703125,-62.98828125,-17.578125,-50.29296875,0.0
1690421348.5439901,-35.64453125,-65.91796875,-16.11328125,-43.45703125,0.0
1690421348.5479653,171.875,-61.03515625,-12.20703125,-43.45703125,0.0
1690421348.5518656,-35.64453125,-52.734375,-11.23046875,-47.36328125,0.0
1690421348.5557659,-218.26171875,-57.12890625,-21.484375,-57.12890625,0.0
1690421348.5596662,-100.09765625,-51.26953125,-25.390625,-49.8046875,0.0
1690421348.5635662,107.91015625,-50.29296875,-20.99609375,-53.7109375,0.0
1690421348.5674665,-5.859375,-50.29296875,-27.83203125,-53.22265625,0.0
1690421348.5713668,-175.78125,-42.96875,-32.2265625,-30.76171875,0.0
1690421348.575267,-121.09375,-41.50390625,-24.90234375,-34.1796875,0.0
1690421348.5791674,78.125,-38.0859375,-43.45703125,-53.7109375,0.0
1690421348.5830677,52.24609375,-32.71484375,-39.0625,-46.875,0.0
1690421348.5869677,-144.04296875,-32.71484375,-18.06640625,-26.3671875,0.0
1690421348.590868,-148.92578125,-51.7578125,-18.5546875,-41.015625,0.0
1690421348.59484,21.97265625,-59.08203125,-22.94921875,-61.03515625,0.0
1690421348.59874,113.76953125,-48.33984375,-27.83203125,-54.6875,0.0
1690421348.6026404,-79.58984375,-43.9453125,-22.94921875,-33.203125,0.0
1690421348.6065407,-130.859375,-44.921875,-28.80859375,-29.78515625,0.0
1690421348.610441,20.01953125,-51.26953125,-41.015625,-42.48046875,0.0
1690421348.6143413,168.9453125,-55.17578125,-43.45703125,-47.8515625,0.0
1690421348.6182415,-8.30078125,-53.7109375,-52.24609375,-33.203125,0.0
1690421348.6221416,-134.27734375,-49.8046875,-44.43359375,-23.92578125,0.0
1690421348.626042,-38.0859375,-44.43359375,-32.2265625,-35.15625,0.0
1690421348.6299422,164.55078125,-42.48046875,-37.109375,-38.57421875,0.0
1690421348.6338425,65.4296875,-40.52734375,-24.90234375,-30.2734375,0.0
1690421348.6377428,-132.8125,-37.59765625,-17.08984375,-23.4375,0.0
1690421348.6417122,-90.33203125,-35.15625,-23.92578125,-19.53125,0.0
1690421348.6456125,109.375,-31.73828125,-23.4375,-31.25,0.0
1690421348.6495128,108.88671875,-37.59765625,-33.203125,-30.2734375,0.0
1690421348.6534128,-111.328125,-40.52734375,-41.9921875,-16.11328125,0.0
1690421348.657313,-148.4375,-47.36328125,-39.55078125,-32.2265625,0.0
1690421348.6612134,12.6953125,-53.22265625,-38.57421875,-45.41015625,0.0
1690421348.6651137,99.609375,-54.19921875,-38.0859375,-45.41015625,0.0
1690421348.669014,-111.328125,-51.7578125,-43.45703125,-48.828125,0.0
1690421348.6729143,-188.96484375,-42.48046875,-42.96875,-49.8046875,0.0
1690421348.6768146,-49.8046875,-43.9453125,-37.59765625,-40.0390625,0.0
1690421348.6807146,124.0234375,-45.8984375,-35.64453125,-31.25,0.0
1690421348.684615,-50.78125,-43.45703125,-41.015625,-37.59765625,0.0
1690421348.688606,-192.3828125,-40.0390625,-46.875,-37.109375,0.0
1690421348.6925063,-102.5390625,-49.31640625,-52.734375,-38.0859375,0.0
1690421348.6964066,102.05078125,-53.7109375,-51.7578125,-45.8984375,0.0
1690421348.700307,22.4609375,-44.43359375,-47.36328125,-43.45703125,0.0
1690421348.7042072,-177.24609375,-40.0390625,-46.38671875,-37.59765625,0.0
1690421348.7081072,-144.04296875,-30.76171875,-46.875,-42.96875,0.0
1690421348.7120075,70.3125,-27.34375,-66.40625,-49.31640625,0.0
1690421348.7159078,100.09765625,-31.25,-66.89453125,-51.26953125,0.0
1690421348.719808,-124.51171875,-37.109375,-49.31640625,-52.734375,0.0
1690421348.7237084,-149.90234375,-41.50390625,-65.91796875,-48.33984375,0.0
1690421348.7276087,31.25,-35.64453125,-58.10546875,-46.875,0.0
1690421348.731509,155.2734375,-23.92578125,-23.4375,-40.52734375,0.0
1690421348.7354968,-57.12890625,-27.34375,-18.06640625,-36.1328125,0.0
1690421348.739397,-153.3203125,-32.71484375,-25.87890625,-39.55078125,0.0
1690421348.743297,-9.27734375,-28.80859375,-31.25,-40.0390625,0.0
1690421348.7471974,178.7109375,-36.1328125,-36.62109375,-39.0625,0.0
1690421348.7510977,19.04296875,-27.34375,-33.69140625,-34.66796875,0.0
1690421348.754998,-125.9765625,-15.13671875,-29.78515625,-17.578125,0.0
1690421348.7588983,-55.17578125,-36.1328125,-44.43359375,-16.11328125,0.0
1690421348.7627985,152.34375,-33.203125,-51.7578125,-16.6015625,0.0
1690421348.7666988,73.2421875,-17.578125,-60.546875,-30.76171875,0.0
1690421348.7705991,-178.22265625,-23.4375,-68.359375,-69.3359375,0.0
1690421348.7744994,-165.0390625,-28.3203125,-63.4765625,-82.51953125,0.0
1690421348.7783997,38.0859375,-26.3671875,-68.84765625,-67.3828125,0.0
1690421348.7823842,82.03125,-23.4375,-63.4765625,-58.59375,0.0
1690421348.7862844,-144.53125,-26.3671875,-65.4296875,-66.40625,0.0
1690421348.7901847,-170.8984375,-28.3203125,-64.94140625,-63.96484375,0.0
1690421348.794085,-9.27734375,-24.90234375,-49.8046875,-53.22265625,0.0
1690421348.7979853,91.796875,-28.3203125,-64.453125,-52.24609375,0.0
1690421348.8018856,-69.82421875,-33.203125,-75.68359375,-55.17578125,0.0
1690421348.805786,-138.18359375,-32.71484375,-60.05859375,-49.31640625,0.0
1690421348.8096862,-28.3203125,-31.25,-55.17578125,-49.31640625,0.0
1690421348.8135865,108.88671875,-34.1796875,-51.7578125,-51.7578125,0.0
1690421348.8174868,-12.6953125,-36.62109375,-50.78125,-46.875,0.0
1690421348.821387,-131.8359375,-32.71484375,-55.17578125,-42.96875,0.0
1690421348.8252873,-61.03515625,-33.69140625,-54.6875,-35.15625,0.0
1690421348.8292685,104.4921875,-26.85546875,-60.546875,-41.50390625,0.0
1690421348.8331687,59.5703125,-21.97265625,-61.5234375,-44.43359375,0.0
1690421348.837069,-99.609375,-34.1796875,-58.59375,-39.55078125,0.0
1690421348.8409693,-59.5703125,-31.25,-58.59375,-29.78515625,0.0
1690421348.8448696,107.91015625,-20.5078125,-49.31640625,-25.87890625,0.0
1690421348.84877,137.20703125,-26.3671875,-48.828125,-31.73828125,0.0
1690421348.8526702,-28.3203125,-33.69140625,-58.10546875,-25.390625,0.0
1690421348.8565705,-42.48046875,-30.76171875,-58.59375,-11.23046875,0.0
1690421348.8604708,85.44921875,-23.4375,-50.78125,-1.953125,0.0
1690421348.864371,177.24609375,-25.87890625,-49.31640625,-19.53125,0.0
1690421348.8682714,37.59765625,-31.25,-47.36328125,-15.625,0.0
1690421348.8721716,-33.69140625,-25.390625,-43.9453125,-2.9296875,0.0
1690421348.8761494,62.01171875,-13.671875,-48.33984375,4.8828125,0.0
1690421348.8800497,194.82421875,-12.20703125,-44.921875,7.8125,0.0
1690421348.88395,69.82421875,-27.34375,-42.48046875,0.0,0.0
1690421348.8878503,-63.96484375,-28.3203125,-43.45703125,4.8828125,0.0
1690421348.8917506,-12.20703125,-30.2734375,-40.52734375,1.953125,0.0
1690421348.8956509,124.0234375,-39.55078125,-41.015625,-10.7421875,0.0
1690421348.8995512,76.171875,-40.0390625,-53.7109375,-22.94921875,0.0
1690421348.9034514,-88.37890625,-38.57421875,-61.5234375,-16.11328125,0.0
1690421348.9073517,-82.03125,-35.15625,-53.7109375,-13.18359375,0.0
1690421348.911252,50.78125,-32.2265625,-47.36328125,-25.87890625,0.0
1690421348.9151523,81.54296875,-37.109375,-49.31640625,-32.71484375,0.0
1690421348.9190526,-87.890625,-38.57421875,-48.828125,-29.296875,0.0
1690421348.9230273,-116.69921875,-34.66796875,-43.45703125,-25.87890625,0.0
1690421348.9269276,0.48828125,-35.64453125,-43.45703125,-27.83203125,0.0
1690421348.9308279,87.890625,-34.1796875,-44.43359375,-38.0859375,0.0
1690421348.9347281,-51.26953125,-37.109375,-46.875,-44.43359375,0.0
1690421348.9386284,-126.953125,-39.55078125,-41.9921875,-42.48046875,0.0
1690421348.9425287,-51.7578125,-41.9921875,-37.109375,-44.43359375,0.0
1690421348.946429,58.10546875,-46.38671875,-40.0390625,-47.36328125,0.0
1690421348.9503293,-25.87890625,-43.9453125,-42.48046875,-52.24609375,0.0
1690421348.9542294,-136.71875,-38.0859375,-38.57421875,-51.26953125,0.0
1690421348.9581296,-92.28515625,-37.109375,-37.59765625,-44.43359375,0.0
1690421348.96203,46.38671875,-38.57421875,-46.38671875,-41.9921875,0.0
1690421348.9659302,35.15625,-34.1796875,-42.96875,-40.52734375,0.0
1690421348.9699018,-101.5625,-26.85546875,-34.66796875,-39.55078125,0.0
1690421348.973802,-91.796875,-29.296875,-38.57421875,-45.8984375,0.0
1690421348.9777024,29.296875,-35.15625,-47.36328125,-58.10546875,0.0
1690421348.9816027,75.68359375,-30.2734375,-47.36328125,-58.59375,0.0
1690421348.985503,-69.82421875,-27.83203125,-39.0625,-50.29296875,0.0
1690421348.9894032,-110.3515625,-29.78515625,-31.25,-42.96875,0.0
1690421348.9933035,-12.20703125,-25.87890625,-39.55078125,-41.015625,0.0
1690421348.9972038,93.26171875,-19.53125,-52.734375,-53.22265625,0.0
1690421349.001104,-30.2734375,-25.390625,-46.38671875,-50.29296875,0.0
1690421349.0050044,-153.3203125,-37.109375,-45.8984375,-42.48046875,0.0
1690421349.0089047,-86.9140625,-40.52734375,-48.33984375,-43.9453125,0.0
1690421349.012805,39.55078125,-42.48046875,-41.015625,-41.50390625,0.0
1690421349.016774,-41.015625,-48.828125,-35.15625,-33.203125,0.0
1690421349.0206742,-152.83203125,-52.24609375,-34.66796875,-29.296875,0.0
1690421349.0245745,-127.44140625,-41.50390625,-41.9921875,-41.015625,0.0
1690421349.0284748,-10.25390625,-24.4140625,-42.96875,-45.41015625,0.0
1690421349.032375,-8.7890625,-20.99609375,-41.9921875,-38.57421875,0.0
1690421349.0362754,-166.50390625,-26.85546875,-48.828125,-37.59765625,0.0
1690421349.0401757,-176.7578125,-29.78515625,-54.6875,-39.0625,0.0
1690421349.044076,-47.8515625,-29.296875,-55.6640625,-37.109375,0.0
1690421349.0479763,-5.859375,-32.2265625,-57.6171875,-36.1328125,0.0
1690421349.0518765,-151.85546875,-34.1796875,-62.98828125,-40.52734375,0.0
1690421349.0557768,-199.21875,-39.55078125,-62.98828125,-36.62109375,0.0
1690421349.0596771,-101.07421875,-37.109375,-49.8046875,-30.76171875,0.0
1690421349.0636678,11.23046875,-24.90234375,-40.0390625,-33.203125,0.0
1690421349.067568,-101.5625,-32.71484375,-48.828125,-43.45703125,0.0
1690421349.0714684,-198.2421875,-36.1328125,-51.26953125,-40.52734375,0.0
1690421349.0753686,-128.90625,-20.5078125,-49.31640625,-34.1796875,0.0
1690421349.079269,-11.23046875,-20.5078125,-51.26953125,-45.41015625,0.0
1690421349.0831692,-70.3125,-25.87890625,-45.41015625,-42.48046875,0.0
1690421349.0870695,-183.59375,-20.01953125,-47.36328125,-36.1328125,0.0
1690421349.0909698,-168.9453125,-21.484375,-45.41015625,-38.57421875,0.0
1690421349.09487,-39.0625,-15.625,-31.73828125,-26.85546875,0.0
1690421349.0987704,-20.99609375,-18.5546875,-37.109375,-19.04296875,0.0
1690421349.1026707,-165.52734375,-26.85546875,-49.31640625,-30.2734375,0.0
1690421349.106571,-177.734375,-28.3203125,-48.828125,-40.52734375,0.0
1690421349.1105583,-71.77734375,-37.59765625,-46.875,-47.8515625,0.0
1690421349.1144586,-7.8125,-41.9921875,-41.015625,-55.6640625,0.0
1690421349.1183589,-132.8125,-31.73828125,-33.69140625,-48.33984375,0.0
1690421349.1222591,-190.91796875,-23.92578125,-31.25,-36.1328125,0.0
1690421349.1261594,-101.07421875,-26.3671875,-33.69140625,-34.1796875,0.0
1690421349.1300597,20.5078125,-21.97265625,-35.64453125,-29.78515625,0.0
1690421349.13396,-60.546875,-20.5078125,-32.71484375,-21.484375,0.0
1690421349.1378603,-143.5546875,-30.2734375,-31.25,-20.99609375,0.0
1690421349.1417606,-79.1015625,-27.34375,-27.34375,-13.671875,0.0
1690421349.1456609,51.26953125,-23.92578125,-31.73828125,-15.13671875,0.0
1690421349.1495612,16.11328125,-20.99609375,-35.15625,-17.08984375,0.0
1690421349.1534615,-105.46875,-20.99609375,-32.71484375,-8.7890625,0.0
1690421349.1574454,-106.93359375,-28.3203125,-43.9453125,-26.3671875,0.0
1690421349.1613457,2.9296875,-25.87890625,-44.43359375,-38.57421875,0.0
1690421349.165246,32.2265625,-29.78515625,-43.45703125,-31.73828125,0.0
1690421349.1691463,-111.328125,-35.15625,-52.24609375,-25.390625,0.0
1690421349.1730466,-146.97265625,-28.80859375,-51.7578125,-35.15625,0.0
1690421349.1769469,-38.0859375,-27.34375,-41.015625,-34.1796875,0.0
1690421349.1808472,41.015625,-21.484375,-35.64453125,-27.34375,0.0
1690421349.1847475,-101.5625,-17.578125,-34.1796875,-34.1796875,0.0
1690421349.1886477,-174.31640625,-21.484375,-30.2734375,-27.34375,0.0
1690421349.192548,-88.37890625,-24.90234375,-36.62109375,-22.94921875,0.0
1690421349.1964483,22.4609375,-22.94921875,-43.45703125,-27.83203125,0.0
1690421349.2003486,-81.0546875,-23.92578125,-39.55078125,-30.76171875,0.0
1690421349.2043297,-195.80078125,-30.76171875,-48.828125,-40.0390625,0.0
1690421349.20823,-146.97265625,-31.25,-57.6171875,-36.1328125,0.0
1690421349.2121303,-23.4375,-29.78515625,-48.828125,-34.66796875,0.0
1690421349.2160306,-62.01171875,-47.8515625,-51.7578125,-44.921875,0.0
1690421349.219931,-188.4765625,-48.33984375,-63.4765625,-35.15625,0.0
1690421349.2238312,-160.15625,-21.484375,-54.19921875,-20.01953125,0.0
1690421349.2277315,-45.8984375,-19.53125,-39.0625,-47.36328125,0.0
1690421349.2316318,-25.87890625,-22.94921875,-41.9921875,-68.359375,0.0
1690421349.235532,-145.99609375,-18.06640625,-48.33984375,-55.17578125,0.0
1690421349.2394323,-161.62109375,-27.34375,-55.17578125,-49.8046875,0.0
1690421349.2433329,-56.15234375,-34.1796875,-62.01171875,-63.96484375,0.0
1690421349.2472332,40.52734375,-34.1796875,-55.17578125,-60.546875,0.0
1690421349.251211,-67.3828125,-23.92578125,-48.828125,-39.55078125,0.0
1690421349.2551112,-117.1875,-15.13671875,-55.17578125,-47.8515625,0.0
1690421349.2590115,-36.1328125,-22.94921875,-52.734375,-46.38671875,0.0
1690421349.2629118,74.70703125,-27.83203125,-46.875,-41.015625,0.0
1690421349.2668123,2.44140625,-27.34375,-47.8515625,-44.43359375,0.0
1690421349.2707126,-102.05078125,-22.4609375,-51.26953125,-36.1328125,0.0
1690421349.274613,-73.73046875,-24.90234375,-55.6640625,-37.109375,0.0
1690421349.2785132,48.33984375,-19.04296875,-50.29296875,-31.73828125,0.0
1690421349.2824135,21.484375,-18.06640625,-41.9921875,-28.80859375,0.0
1690421349.2863138,-124.51171875,-27.83203125,-48.33984375,-38.57421875,0.0
1690421349.290214,-112.79296875,-24.90234375,-51.26953125,-33.203125,0.0
1690421349.2941144,-4.39453125,-29.296875,-49.8046875,-24.90234375,0.0
1690421349.2980888,20.01953125,-39.0625,-48.33984375,-27.83203125,0.0
1690421349.301989,-109.86328125,-35.64453125,-50.29296875,-32.71484375,0.0
1690421349.3058894,-130.859375,-36.1328125,-49.8046875,-37.109375,0.0
1690421349.3097897,-41.50390625,-35.64453125,-53.7109375,-39.55078125,0.0
1690421349.31369,27.83203125,-30.2734375,-56.15234375,-36.1328125,0.0
1690421349.3175902,-76.66015625,-36.1328125,-60.05859375,-31.73828125,0.0
1690421349.3214905,-154.296875,-45.41015625,-61.03515625,-31.25,0.0
1690421349.3253908,-90.33203125,-33.203125,-46.875,-31.73828125,0.0
1690421349.3292913,28.3203125,-17.578125,-41.9921875,-36.1328125,0.0
1690421349.3331916,-40.0390625,-24.4140625,-43.45703125,-35.64453125,0.0
1690421349.337092,-150.87890625,-21.97265625,-43.45703125,-32.2265625,0.0
1690421349.3409922,-112.3046875,-13.671875,-42.96875,-34.1796875,0.0
1690421349.3449633,3.90625,-22.94921875,-44.43359375,-37.109375,0.0
1690421349.3488636,-1.953125,-32.2265625,-59.5703125,-48.33984375,0.0
1690421349.3527641,-117.1875,-37.109375,-61.03515625,-53.22265625,0.0
1690421349.3566644,-127.44140625,-46.875,-49.31640625,-52.24609375,0.0
1690421349.3605647,-15.625,-35.15625,-52.734375,-57.12890625,0.0
1690421349.364465,37.109375,-24.90234375,-59.08203125,-52.734375,0.0
1690421349.3683653,-83.49609375,-38.57421875,-56.15234375,-50.29296875,0.0
1690421349.3722656,-108.3984375,-33.69140625,-48.33984375,-50.29296875,0.0
1690421349.3761659,-40.52734375,-23.92578125,-48.33984375,-47.8515625,0.0
1690421349.3800662,38.57421875,-22.94921875,-50.29296875,-35.15625,0.0
1690421349.3839664,-42.96875,-29.78515625,-44.921875,-36.62109375,0.0
1690421349.3878667,-125.0,-38.57421875,-56.15234375,-57.6171875,0.0
1690421349.3918355,-80.078125,-48.33984375,-60.05859375,-61.5234375,0.0
1690421349.3957357,51.26953125,-39.55078125,-61.03515625,-54.6875,0.0
1690421349.399636,-2.9296875,-20.01953125,-68.359375,-62.01171875,0.0
1690421349.4035366,-138.18359375,-18.06640625,-57.12890625,-58.10546875,0.0
1690421349.4074368,-102.05078125,-27.83203125,-49.8046875,-50.29296875,0.0
1690421349.4113371,30.2734375,-26.3671875,-54.6875,-47.36328125,0.0
1690421349.4152374,36.62109375,-26.3671875,-54.6875,-44.43359375,0.0
1690421349.4191377,-99.12109375,-34.66796875,-49.8046875,-36.1328125,0.0
1690421349.423038,-108.3984375,-31.25,-44.921875,-31.73828125,0.0
1690421349.4269383,18.06640625,-24.90234375,-47.8515625,-37.59765625,0.0
1690421349.4308386,78.125,-30.76171875,-53.7109375,-36.1328125,0.0
1690421349.4347389,-46.38671875,-48.33984375,-61.5234375,-52.734375,0.0
1690421349.4387293,-79.58984375,-46.38671875,-61.03515625,-50.29296875,0.0
1690421349.4426296,-6.8359375,-24.90234375,-49.31640625,-41.015625,0.0
1690421349.4465299,84.47265625,-23.92578125,-49.8046875,-53.7109375,0.0
1690421349.4504302,5.859375,-23.92578125,-47.36328125,-46.38671875,0.0
1690421349.4543304,-73.73046875,-29.78515625,-41.9921875,-50.78125,0.0
1690421349.4582307,-8.7890625,-36.62109375,-43.45703125,-46.38671875,0.0
1690421349.462131,113.28125,-39.0625,-44.43359375,-46.875,0.0
1690421349.4660316,62.5,-46.38671875,-46.875,-48.33984375,0.0
1690421349.4699318,-50.78125,-47.36328125,-45.8984375,-39.55078125,0.0
1690421349.4738321,-25.87890625,-30.76171875,-42.96875,-37.59765625,0.0
1690421349.4777324,99.609375,-15.13671875,-56.640625,-13.671875,0.0
1690421349.4816327,105.46875,-28.80859375,-52.24609375,-6.8359375,0.0
1690421349.4856198,-42.48046875,-43.45703125,-33.203125,-37.109375,0.0
1690421349.48952,-62.5,-43.9453125,-27.83203125,-51.7578125,0.0
1690421349.4934204,26.85546875,-39.55078125,-21.97265625,-43.9453125,0.0
1690421349.4973207,96.6796875,-35.15625,-21.97265625,-44.921875,0.0
1690421349.5012212,-19.04296875,-41.015625,-25.87890625,-50.78125,0.0
1690421349.5051215,-104.4921875,-45.8984375,-29.78515625,-64.94140625,0.0
1690421349.5090218,-46.875,-45.41015625,-22.4609375,-61.5234375,0.0
1690421349.512922,33.203125,-46.38671875,-24.4140625,-70.3125,0.0
1690421349.5168223,-53.7109375,-42.48046875,-25.390625,-71.77734375,0.0
1690421349.5207226,-135.7421875,-37.109375,-25.390625,-59.5703125,0.0
1690421349.524623,-102.05078125,-46.875,-34.1796875,-79.1015625,0.0
1690421349.5285234,2.44140625,-45.8984375,-34.66796875,-73.2421875,0.0
1690421349.532507,-18.5546875,-31.25,-38.57421875,-60.05859375,0.0
1690421349.5364072,-141.6015625,-34.1796875,-34.1796875,-75.1953125,0.0
1690421349.5403075,-134.765625,-39.0625,-30.2734375,-67.87109375,0.0
1690421349.5442078,-14.6484375,-39.55078125,-34.1796875,-62.01171875,0.0
1690421349.548108,15.13671875,-49.31640625,-32.2265625,-66.89453125,0.0
1690421349.5520086,-74.70703125,-46.38671875,-31.73828125,-55.6640625,0.0
1690421349.555909,-94.23828125,-42.96875,-37.59765625,-59.08203125,0.0
1690421349.5598092,48.828125,-37.59765625,-36.1328125,-34.66796875,0.0
1690421349.5637095,250.9765625,-26.3671875,-31.25,9.765625,0.0
1690421349.5676098,62.5,-17.578125,-35.64453125,-14.6484375,0.0
1690421349.57151,-136.23046875,-15.625,-40.0390625,-56.15234375,0.0
1690421349.5754106,-12.20703125,-25.390625,-43.9453125,-40.52734375,0.0
1690421349.5793908,251.953125,-27.83203125,-36.1328125,11.71875,0.0
1690421349.583291,78.125,-30.2734375,-35.64453125,-19.04296875,0.0
1690421349.5871913,-176.7578125,-36.1328125,-44.43359375,-71.2890625,0.0
1690421349.5910916,-104.4921875,-35.64453125,-41.015625,-52.24609375,0.0
1690421349.5949922,171.38671875,-26.85546875,-30.2734375,1.46484375,0.0
1690421349.5988925,159.66796875,-26.85546875,-29.296875,-5.859375,0.0
1690421349.6027927,-119.62890625,-32.71484375,-38.57421875,-58.10546875,0.0
1690421349.606693,-138.671875,-35.15625,-44.921875,-61.5234375,0.0
1690421349.6105933,65.4296875,-33.203125,-44.43359375,-11.71875,0.0
1690421349.6144936,149.4140625,-27.34375,-36.1328125,20.99609375,0.0
1690421349.6183941,-113.28125,-32.71484375,-35.15625,-26.85546875,0.0
1690421349.6222944,-194.82421875,-29.78515625,-43.9453125,-58.10546875,0.0
1690421349.6262715,-31.73828125,-36.62109375,-41.50390625,-41.015625,0.0
1690421349.6301718,143.5546875,-41.9921875,-41.015625,-11.71875,0.0
1690421349.634072,-52.734375,-31.73828125,-45.8984375,-48.33984375,0.0
1690421349.6379724,-208.0078125,-35.64453125,-47.36328125,-87.890625,0.0
1690421349.6418726,-86.42578125,-29.78515625,-49.31640625,-73.2421875,0.0
1690421349.6457732,166.50390625,-24.4140625,-42.48046875,-21.97265625,0.0
1690421349.6496735,62.01171875,-37.109375,-44.921875,-42.48046875,0.0
1690421349.6535738,-176.26953125,-42.48046875,-51.7578125,-89.35546875,0.0
1690421349.657474,-135.25390625,-40.0390625,-45.41015625,-72.75390625,0.0
1690421349.6613743,118.65234375,-47.8515625,-40.0390625,-34.66796875,0.0
1690421349.6652749,127.9296875,-48.33984375,-39.0625,-39.0625,0.0
1690421349.6691751,-125.9765625,-35.64453125,-41.015625,-81.0546875,0.0
1690421349.673149,-104.4921875,-28.80859375,-31.73828125,-74.70703125,0.0
1690421349.6770494,129.39453125,-30.2734375,-33.203125,-40.0390625,0.0
1690421349.6809497,214.35546875,-32.2265625,-54.6875,-26.85546875,0.0
1690421349.68485,-28.3203125,-27.83203125,-66.89453125,-69.3359375,0.0
1690421349.6887503,-111.81640625,-37.109375,-64.453125,-89.84375,0.0
1690421349.6926508,57.6171875,-48.33984375,-54.19921875,-58.10546875,0.0
1690421349.696551,235.83984375,-38.57421875,-48.33984375,-26.85546875,0.0
1690421349.7004514,63.4765625,-34.66796875,-43.9453125,-48.33984375,0.0
1690421349.7043517,-86.9140625,-40.52734375,-39.55078125,-83.0078125,0.0
1690421349.708252,6.8359375,-34.1796875,-41.9921875,-81.54296875,0.0
1690421349.7121525,218.75,-41.50390625,-41.50390625,-41.9921875,0.0
1690421349.7160528,126.953125,-45.41015625,-41.9921875,-62.98828125,0.0
1690421349.7200236,-83.0078125,-33.69140625,-46.38671875,-100.09765625,0.0
1690421349.723924,-57.6171875,-29.296875,-51.7578125,-80.078125,0.0
1690421349.7278242,149.4140625,-26.85546875,-49.8046875,-31.73828125,0.0
1690421349.7317247,182.6171875,-23.92578125,-44.921875,-7.32421875,0.0
1690421349.735625,-53.22265625,-33.203125,-44.921875,-57.12890625,0.0
1690421349.7395253,-91.30859375,-45.41015625,-45.41015625,-68.359375,0.0
1690421349.7434256,89.35546875,-45.41015625,-42.96875,-20.5078125,0.0
1690421349.7473261,180.17578125,-44.921875,-42.48046875,-8.7890625,0.0
1690421349.7512264,-31.25,-36.62109375,-45.41015625,-58.10546875,0.0
1690421349.7551267,-121.09375,-41.9921875,-46.875,-80.078125,0.0
1690421349.759027,-5.859375,-54.6875,-49.8046875,-69.3359375,0.0
1690421349.7629273,178.7109375,-49.8046875,-45.41015625,-31.73828125,0.0
1690421349.7668958,33.203125,-44.43359375,-38.57421875,-35.64453125,0.0
1690421349.770796,-139.6484375,-42.48046875,-44.43359375,-72.75390625,0.0
1690421349.7746964,-77.1484375,-49.31640625,-47.8515625,-64.453125,0.0
1690421349.7785966,128.41796875,-47.8515625,-53.7109375,-19.53125,0.0
1690421349.7824972,61.5234375,-47.36328125,-57.12890625,-35.64453125,0.0
1690421349.7863975,-157.2265625,-61.03515625,-44.921875,-68.359375,0.0
1690421349.7902977,-138.18359375,-58.10546875,-48.33984375,-69.82421875,0.0
1690421349.794198,54.6875,-48.33984375,-56.15234375,-36.62109375,0.0
1690421349.7980983,83.0078125,-45.8984375,-52.734375,-14.6484375,0.0
1690421349.8019989,-126.46484375,-39.55078125,-52.734375,-51.26953125,0.0
1690421349.8058991,-164.55078125,-38.0859375,-53.22265625,-70.3125,0.0
1690421349.8097994,7.32421875,-51.7578125,-46.38671875,-44.43359375,0.0
1690421349.8137891,146.484375,-44.921875,-41.015625,3.41796875,0.0
1690421349.8176897,-63.96484375,-36.62109375,-50.78125,-19.53125,0.0
1690421349.82159,-167.96875,-51.26953125,-54.19921875,-65.91796875,0.0
1690421349.8254902,-42.96875,-46.38671875,-45.8984375,-50.29296875,0.0
1690421349.8293905,142.08984375,-32.71484375,-36.1328125,-4.8828125,0.0
1690421349.833291,0.0,-38.0859375,-38.57421875,-27.34375,0.0
1690421349.8371913,-175.29296875,-49.8046875,-47.8515625,-65.91796875,0.0
1690421349.8410916,-102.05078125,-53.22265625,-53.22265625,-66.40625,0.0
1690421349.844992,99.12109375,-46.875,-45.8984375,-34.1796875,0.0
1690421349.8488925,66.89453125,-55.6640625,-30.2734375,-17.08984375,0.0
1690421349.8527927,-132.8125,-66.89453125,-34.66796875,-38.0859375,0.0
1690421349.856693,-136.23046875,-54.19921875,-46.875,-50.29296875,0.0
1690421349.8606813,49.8046875,-39.0625,-48.828125,-20.99609375,0.0
1690421349.8645816,83.984375,-39.0625,-49.31640625,8.7890625,0.0
1690421349.8684819,-140.13671875,-46.875,-59.5703125,-8.30078125,0.0
1690421349.8723824,-185.05859375,-56.640625,-59.5703125,-11.23046875,0.0
1690421349.8762827,-24.4140625,-54.6875,-48.828125,31.25,0.0
1690421349.880183,120.1171875,-43.9453125,-50.78125,74.70703125,0.0
1690421349.8840833,-68.84765625,-38.0859375,-52.734375,47.36328125,0.0
1690421349.8879838,-179.19921875,-32.71484375,-38.0859375,23.92578125,0.0
1690421349.891884,-64.94140625,-35.15625,-30.76171875,44.43359375,0.0
1690421349.8957844,112.79296875,-52.24609375,-38.57421875,74.21875,0.0
1690421349.8996847,-13.18359375,-67.3828125,-42.48046875,55.17578125,0.0
1690421349.9035852,-204.1015625,-57.6171875,-39.55078125,36.62109375,0.0
1690421349.9075701,-154.78515625,-51.7578125,-37.59765625,39.55078125,0.0
1690421349.9114707,58.10546875,-44.43359375,-39.0625,67.3828125,0.0
1690421349.915371,42.96875,-43.9453125,-42.96875,60.05859375,0.0
1690421349.9192712,-187.5,-53.22265625,-42.96875,7.32421875,0.0
1690421349.9231718,-181.15234375,-37.59765625,-37.59765625,9.27734375,0.0
1690421349.927072,23.4375,-37.109375,-37.59765625,44.43359375,0.0
1690421349.9309723,78.125,-50.29296875,-39.0625,54.19921875,0.0
1690421349.9348726,-128.41796875,-46.875,-29.78515625,14.16015625,0.0
1690421349.9387732,-177.24609375,-42.48046875,-27.34375,-1.953125,0.0
1690421349.9426734,-28.80859375,-38.0859375,-33.69140625,9.27734375,0.0
1690421349.9465737,125.9765625,-36.62109375,-35.64453125,25.390625,0.0
1690421349.9504743,-52.734375,-50.29296875,-36.62109375,2.9296875,0.0
1690421349.9544551,-188.96484375,-54.19921875,-38.0859375,-37.109375,0.0
1690421349.9583554,-83.984375,-46.38671875,-37.109375,-42.48046875,0.0
1690421349.962256,113.76953125,-38.0859375,-32.2265625,1.46484375,0.0
1690421349.9661562,5.37109375,-43.9453125,-38.0859375,0.0,0.0
1690421349.9700565,-192.87109375,-50.29296875,-50.78125,-58.59375,0.0
1690421349.973957,-155.2734375,-53.22265625,-49.8046875,-65.91796875,0.0
1690421349.9778574,44.921875,-55.17578125,-44.43359375,-17.578125,0.0
1690421349.9817576,55.6640625,-40.0390625,-37.109375,-11.23046875,0.0
1690421349.9856582,-166.9921875,-35.64453125,-30.2734375,-45.8984375,0.0
1690421349.9895585,-192.87109375,-42.96875,-33.69140625,-70.80078125,0.0
1690421349.9934587,1.46484375,-44.43359375,-37.109375,-42.48046875,0.0
1690421349.997359,83.49609375,-43.9453125,-35.64453125,-20.5078125,0.0
1690421350.001362,-134.765625,-41.9921875,-31.25,-61.03515625,0.0
1690421350.0052624,-213.8671875,-46.875,-31.73828125,-79.1015625,0.0
1690421350.009163,-67.87109375,-57.12890625,-37.109375,-67.87109375,0.0
1690421350.0130632,103.02734375,-63.4765625,-38.0859375,-36.1328125,0.0
1690421350.0169635,-80.56640625,-51.7578125,-32.2265625,-62.01171875,0.0
1690421350.020864,-255.37109375,-53.7109375,-24.4140625,-88.8671875,0.0
1690421350.0247643,-172.36328125,-61.5234375,-28.80859375,-76.66015625,0.0
1690421350.0286646,37.59765625,-48.33984375,-32.2265625,-36.62109375,0.0
1690421350.0325649,-67.3828125,-44.43359375,-29.296875,-48.33984375,0.0
1690421350.0364654,-286.62109375,-41.9921875,-30.2734375,-98.14453125,0.0
1690421350.0403657,-272.4609375,-45.41015625,-28.80859375,-95.703125,0.0
1690421350.044266,-62.01171875,-55.6640625,-33.203125,-59.08203125,0.0
1690421350.0482407,-69.3359375,-49.8046875,-34.66796875,-55.17578125,0.0
1690421350.052141,-346.6796875,-47.36328125,-29.78515625,-96.6796875,0.0
1690421350.0560412,-387.6953125,-47.8515625,-32.2265625,-120.1171875,0.0
1690421350.0599418,-207.03125,-43.9453125,-23.92578125,-94.23828125,0.0
1690421350.063842,-111.328125,-46.875,-20.5078125,-70.3125,0.0
1690421350.0677423,-357.91015625,-42.96875,-32.2265625,-101.5625,0.0
1690421350.0716429,-483.3984375,-46.38671875,-45.41015625,-130.859375,0.0
1690421350.0755432,-341.30859375,-48.828125,-41.9921875,-124.51171875,0.0
1690421350.0794435,-172.36328125,-49.31640625,-36.62109375,-76.66015625,0.0
1690421350.083344,-396.97265625,-51.7578125,-33.69140625,-99.609375,0.0
1690421350.0872443,-617.1875,-45.41015625,-29.296875,-144.53125,0.0
1690421350.0911446,-563.4765625,-43.9453125,-28.3203125,-128.90625,0.0
1690421350.0951412,-357.421875,-49.8046875,-32.71484375,-99.609375,0.0
1690421350.0990415,-477.5390625,-56.15234375,-32.2265625,-116.2109375,0.0
1690421350.1029418,-767.08984375,-54.19921875,-23.92578125,-134.765625,0.0
1690421350.1068423,-806.15234375,-44.43359375,-27.34375,-130.37109375,0.0
1690421350.1107426,-625.0,-45.8984375,-34.66796875,-106.93359375,0.0
1690421350.1146429,-637.20703125,-49.31640625,-32.2265625,-91.796875,0.0
1690421350.1185434,-948.73046875,-44.43359375,-29.296875,-126.46484375,0.0
1690421350.1224437,-1000.0,-41.50390625,-33.69140625,-122.0703125,0.0
1690421350.126344,-848.6328125,-43.45703125,-30.2734375,-80.56640625,0.0
1690421350.1302445,-746.58203125,-45.8984375,-30.2734375,-52.734375,0.0
1690421350.1341448,-953.125,-45.41015625,-39.0625,-82.03125,0.0
1690421350.1380453,-1000.0,-53.22265625,-48.33984375,-101.5625,0.0
1690421350.142088,-970.21484375,-59.08203125,-48.33984375,-74.21875,0.0
1690421350.1459885,-794.921875,-62.01171875,-52.734375,-24.4140625,0.0
1690421350.1498888,-865.72265625,-59.08203125,-56.640625,-35.15625,0.0
1690421350.1537893,-1000.0,-57.6171875,-50.78125,-68.84765625,0.0
1690421350.1576896,-964.35546875,-59.08203125,-44.43359375,-54.19921875,0.0
1690421350.1615899,-646.97265625,-59.08203125,-41.9921875,-1.953125,0.0
1690421350.1654904,-632.32421875,-61.5234375,-43.9453125,10.25390625,0.0
1690421350.1693907,-839.84375,-59.08203125,-44.921875,-25.87890625,0.0
1690421350.1732912,-750.48828125,-57.12890625,-38.0859375,-22.4609375,0.0
1690421350.1771915,-426.7578125,-57.6171875,-29.78515625,20.5078125,0.0
1690421350.1810918,-278.3203125,-56.640625,-37.109375,39.0625,0.0
1690421350.1849923,-481.93359375,-58.10546875,-46.38671875,1.953125,0.0
1690421350.1889813,-476.5625,-55.6640625,-36.62109375,0.9765625,0.0
1690421350.1928816,-189.453125,-54.19921875,-29.78515625,35.15625,0.0
1690421350.1967819,56.15234375,-55.6640625,-35.15625,60.05859375,0.0
1690421350.2006824,-131.8359375,-54.19921875,-33.69140625,41.9921875,0.0
1690421350.2045827,-237.79296875,-61.03515625,-32.71484375,24.90234375,0.0
1690421350.2084832,-37.59765625,-75.68359375,-43.45703125,37.109375,0.0
1690421350.2123835,263.18359375,-66.89453125,-45.41015625,77.63671875,0.0
1690421350.2162838,163.57421875,-51.7578125,-41.015625,65.4296875,0.0
1690421350.2201843,-17.08984375,-54.6875,-39.55078125,41.015625,0.0
1690421350.2240846,99.12109375,-59.5703125,-41.015625,43.9453125,0.0
1690421350.2279851,412.109375,-50.78125,-43.45703125,87.890625,0.0
1690421350.2318854,431.640625,-49.31640625,-41.015625,93.75,0.0
1690421350.2359245,228.02734375,-59.08203125,-48.828125,55.6640625,0.0
1690421350.2398248,292.48046875,-65.4296875,-38.57421875,43.9453125,0.0
1690421350.2437253,585.9375,-62.5,-22.94921875,65.4296875,0.0
1690421350.2476256,733.3984375,-50.78125,-34.66796875,87.40234375,0.0
1690421350.251526,541.9921875,-49.31640625,-47.36328125,48.33984375,0.0
1690421350.2554264,572.265625,-54.6875,-54.19921875,26.85546875,0.0
1690421350.2593267,812.98828125,-57.12890625,-52.734375,38.57421875,0.0
1690421350.2632272,987.79296875,-63.4765625,-35.64453125,65.4296875,0.0
1690421350.2671275,922.36328125,-66.40625,-32.2265625,41.9921875,0.0
1690421350.271028,908.203125,-60.05859375,-32.2265625,23.4375,0.0
1690421350.2749283,971.19140625,-57.6171875,-32.2265625,39.0625,0.0
1690421350.2788289,972.16796875,-56.640625,-26.85546875,67.3828125,0.0
1690421350.2828128,969.7265625,-60.05859375,-22.94921875,56.640625,0.0
1690421350.2867131,972.16796875,-57.12890625,-27.34375,31.73828125,0.0
1690421350.2906137,967.7734375,-54.19921875,-29.78515625,38.0859375,0.0
1690421350.294514,973.6328125,-62.98828125,-38.0859375,70.80078125,0.0
1690421350.2984145,963.8671875,-74.21875,-43.9453125,65.91796875,0.0
1690421350.3023148,868.1640625,-80.56640625,-42.48046875,27.83203125,0.0
1690421350.306215,815.4296875,-78.125,-47.36328125,27.34375,0.0
1690421350.3101156,916.9921875,-73.73046875,-43.9453125,56.640625,0.0
1690421350.3140159,969.7265625,-70.80078125,-38.0859375,80.56640625,0.0
1690421350.3179164,789.0625,-76.66015625,-42.48046875,45.41015625,0.0
1690421350.3218167,667.96875,-82.03125,-37.59765625,30.2734375,0.0
1690421350.3257172,803.7109375,-80.078125,-34.1796875,48.828125,0.0
1690421350.3296964,990.234375,-76.171875,-35.64453125,74.21875,0.0
1690421350.333597,844.7265625,-69.3359375,-35.15625,47.8515625,0.0
1690421350.3374972,667.48046875,-65.91796875,-43.45703125,6.34765625,0.0
1690421350.3413978,775.390625,-68.359375,-51.7578125,12.20703125,0.0
1690421350.345298,975.09765625,-68.84765625,-42.96875,42.48046875,0.0
1690421350.3491983,873.53515625,-72.75390625,-40.52734375,25.87890625,0.0
1690421350.3530989,663.57421875,-64.453125,-38.57421875,-3.41796875,0.0
1690421350.3569992,656.73828125,-58.10546875,-43.45703125,-2.9296875,0.0
1690421350.3608997,855.46875,-64.94140625,-46.875,22.4609375,0.0
1690421350.3648,817.87109375,-58.59375,-36.62109375,20.5078125,0.0
1690421350.3687005,495.60546875,-61.03515625,-25.87890625,-12.6953125,0.0
1690421350.3726008,403.80859375,-71.2890625,-30.2734375,-22.4609375,0.0
1690421350.376577,580.078125,-64.94140625,-46.875,-6.34765625,0.0
1690421350.3804772,667.96875,-48.828125,-26.3671875,26.85546875,0.0
1690421350.3843777,342.7734375,-54.6875,-26.3671875,4.8828125,0.0
1690421350.388278,174.8046875,-56.640625,-38.57421875,-35.64453125,0.0
1690421350.3921785,300.29296875,-42.48046875,-38.0859375,-25.390625,0.0
1690421350.3960788,446.77734375,-46.38671875,-40.52734375,8.30078125,0.0
1690421350.399979,206.54296875,-56.640625,-43.45703125,-17.08984375,0.0
1690421350.4038796,-21.484375,-58.10546875,-49.8046875,-37.109375,0.0
1690421350.40778,23.4375,-54.19921875,-35.15625,-28.3203125,0.0
1690421350.4116805,220.703125,-46.38671875,-29.78515625,-7.32421875,0.0
1690421350.4155807,80.078125,-45.8984375,-33.69140625,-8.30078125,0.0
1690421350.4194813,-213.8671875,-48.828125,-30.76171875,-24.4140625,0.0
1690421350.4234552,-236.328125,-52.734375,-29.78515625,-25.87890625,0.0
1690421350.4273558,-32.71484375,-48.828125,-32.71484375,-4.8828125,0.0
1690421350.431256,-28.80859375,-48.828125,-33.69140625,8.30078125,0.0
1690421350.4351566,-318.84765625,-58.59375,-41.50390625,-31.73828125,0.0
1690421350.4390569,-363.28125,-57.6171875,-42.96875,-59.5703125,0.0
1690421350.4429574,-160.64453125,-56.640625,-28.3203125,-19.04296875,0.0
1690421350.4468577,-24.90234375,-56.15234375,-32.71484375,16.6015625,0.0
1690421350.4507582,-254.8828125,-37.59765625,-32.71484375,2.9296875,0.0
1690421350.4546585,-364.2578125,-15.13671875,-34.1796875,-22.94921875,0.0
1690421350.458559,-227.5390625,-26.3671875,-47.36328125,-48.828125,0.0
1690421350.4624593,1.46484375,-34.66796875,-38.57421875,-22.4609375,0.0
1690421350.4663599,-138.18359375,-14.6484375,-36.62109375,-26.85546875,0.0
1690421350.470331,-338.37890625,-4.39453125,-51.26953125,-88.8671875,0.0
1690421350.4742312,-219.23828125,0.48828125,-59.08203125,-92.7734375,0.0
1690421350.4781318,22.4609375,10.7421875,-60.05859375,-58.10546875,0.0
1690421350.482032,-57.12890625,11.71875,-68.84765625,-63.96484375,0.0
1690421350.4859326,-271.97265625,13.671875,-78.61328125,-88.37890625,0.0
1690421350.4898329,-259.27734375,24.4140625,-73.73046875,-72.75390625,0.0
1690421350.4937334,-25.87890625,31.25,-67.87109375,-36.62109375,0.0
1690421350.4976337,-9.765625,20.01953125,-69.3359375,-49.8046875,0.0
1690421350.5015342,-323.2421875,2.9296875,-71.2890625,-83.49609375,0.0
1690421350.5054345,-392.578125,-12.20703125,-71.77734375,-72.265625,0.0
1690421350.509335,-190.4296875,-8.7890625,-73.73046875,-36.1328125,0.0
1690421350.5132353,-36.62109375,4.8828125,-74.21875,-14.16015625,0.0
1690421350.517203,-296.38671875,11.23046875,-62.5,-27.83203125,0.0
1690421350.5211034,-449.21875,-8.7890625,-53.7109375,-41.015625,0.0
1690421350.525004,-298.33984375,-38.57421875,-61.5234375,-23.92578125,0.0
1690421350.5289042,-58.10546875,-19.53125,-63.96484375,-0.9765625,0.0
1690421350.5328047,-245.1171875,3.90625,-51.7578125,-20.01953125,0.0
1690421350.536705,-486.81640625,-4.39453125,-52.24609375,-32.2265625,0.0
1690421350.5406055,-393.06640625,-11.23046875,-63.4765625,-26.85546875,0.0
1690421350.5445058,-98.14453125,-10.25390625,-66.40625,-10.25390625,0.0
1690421350.5484064,-126.953125,-20.5078125,-61.03515625,-5.37109375,0.0
1690421350.5523067,-402.34375,-30.2734375,-62.01171875,-36.62109375,0.0
1690421350.5562072,-395.99609375,-23.92578125,-58.59375,-41.015625,0.0
1690421350.5601075,-118.65234375,-16.11328125,-52.24609375,-7.32421875,0.0
1690421350.5640967,-33.69140625,-23.4375,-58.10546875,3.41796875,0.0
1690421350.5679972,-350.09765625,-43.45703125,-50.29296875,-28.80859375,0.0
1690421350.5718975,-437.5,-41.015625,-50.78125,-54.19921875,0.0
1690421350.575798,-225.09765625,-31.25,-63.4765625,-54.6875,0.0
1690421350.5796983,-28.3203125,-38.57421875,-64.453125,-24.4140625,0.0
1690421350.5835989,-294.921875,-43.45703125,-63.4765625,-34.1796875,0.0
1690421350.5874994,-482.91015625,-40.0390625,-49.31640625,-70.80078125,0.0
1690421350.5913997,-345.21484375,-31.73828125,-45.8984375,-73.2421875,0.0
1690421350.5953002,-69.82421875,-29.78515625,-53.7109375,-39.55078125,0.0
1690421350.5992005,-245.60546875,-31.25,-55.17578125,-47.36328125,0.0
1690421350.603101,-527.83203125,-38.57421875,-54.19921875,-84.47265625,0.0
1690421350.6070013,-477.05078125,-38.0859375,-54.19921875,-85.44921875,0.0
1690421350.6109877,-204.1015625,-39.55078125,-62.5,-54.19921875,0.0
1690421350.614888,-238.76953125,-37.109375,-65.91796875,-47.8515625,0.0
1690421350.6187885,-556.15234375,-33.69140625,-57.6171875,-80.078125,0.0
1690421350.622689,-573.73046875,-47.36328125,-50.29296875,-89.84375,0.0
1690421350.6265893,-299.8046875,-45.41015625,-47.36328125,-47.36328125,0.0
1690421350.6304898,-170.41015625,-47.8515625,-47.36328125,-12.6953125,0.0
1690421350.63439,-493.65234375,-59.5703125,-43.45703125,-52.734375,0.0
1690421350.6382906,-604.00390625,-47.8515625,-44.921875,-70.80078125,0.0
1690421350.642191,-368.1640625,-40.52734375,-51.26953125,-32.71484375,0.0
1690421350.6460915,-131.34765625,-48.828125,-48.33984375,-4.8828125,0.0
1690421350.6499918,-387.6953125,-66.40625,-49.8046875,-31.25,0.0
1690421350.6538923,-578.61328125,-56.640625,-49.8046875,-36.1328125,0.0
1690421350.6578753,-440.4296875,-40.0390625,-41.015625,-24.90234375,0.0
1690421350.6617756,-149.4140625,-38.0859375,-33.203125,17.578125,0.0
1690421350.665676,-294.43359375,-35.15625,-38.57421875,15.13671875,0.0
1690421350.6695766,-583.0078125,-41.9921875,-46.875,-31.73828125,0.0
1690421350.673477,-530.76171875,-41.50390625,-45.8984375,-36.62109375,0.0
1690421350.6773775,-217.28515625,-47.8515625,-54.6875,3.41796875,0.0
1690421350.6812778,-185.05859375,-48.33984375,-60.546875,15.625,0.0
1690421350.6851783,-510.25390625,-40.52734375,-45.41015625,-22.94921875,0.0
1690421350.6890786,-510.7421875,-39.0625,-39.55078125,-30.76171875,0.0
1690421350.692979,-183.59375,-41.015625,-40.52734375,-3.41796875,0.0
1690421350.6968796,-24.4140625,-50.29296875,-35.15625,23.4375,0.0
1690421350.70078,-326.66015625,-44.921875,-31.25,-9.27734375,0.0
1690421350.7047849,-427.734375,-42.96875,-36.62109375,-37.59765625,0.0
1690421350.7086852,-200.1953125,-43.9453125,-47.36328125,-20.5078125,0.0
1690421350.7125857,83.984375,-29.78515625,-46.875,11.23046875,0.0
1690421350.716486,-126.953125,-29.296875,-48.33984375,-26.85546875,0.0
1690421350.7203865,-351.07421875,-44.43359375,-49.8046875,-67.87109375,0.0
1690421350.7242868,-199.21875,-46.875,-41.9921875,-49.31640625,0.0
1690421350.7281873,155.2734375,-41.9921875,-47.36328125,-11.71875,0.0
1690421350.7320879,56.640625,-52.24609375,-52.734375,-20.5078125,0.0
1690421350.7359881,-222.65625,-50.29296875,-44.921875,-59.08203125,0.0
1690421350.7398887,-168.45703125,-43.9453125,-46.875,-74.21875,0.0
1690421350.743789,145.99609375,-51.26953125,-49.8046875,-43.45703125,0.0
1690421350.7476895,200.68359375,-64.453125,-45.41015625,-35.64453125,0.0
1690421350.751666,-122.0703125,-58.10546875,-43.45703125,-76.171875,0.0
1690421350.7555666,-146.484375,-40.52734375,-44.921875,-75.68359375,0.0
1690421350.759467,161.62109375,-41.50390625,-38.57421875,-32.71484375,0.0
1690421350.7633674,363.28125,-41.50390625,-38.57421875,3.90625,0.0
1690421350.767268,57.6171875,-38.57421875,-41.50390625,-30.76171875,0.0
1690421350.7711682,-66.89453125,-35.15625,-40.52734375,-49.8046875,0.0
1690421350.7750688,167.96875,-28.3203125,-35.64453125,-17.08984375,0.0
1690421350.778969,457.51953125,-36.1328125,-24.4140625,20.99609375,0.0
1690421350.7828696,259.27734375,-46.38671875,-18.5546875,-3.90625,0.0
1690421350.78677,48.33984375,-47.8515625,-28.80859375,-40.0390625,0.0
1690421350.7906704,194.3359375,-55.6640625,-38.57421875,-43.45703125,0.0
1690421350.794571,541.50390625,-53.7109375,-39.0625,0.9765625,0.0
1690421350.7985435,487.79296875,-47.8515625,-35.15625,8.7890625,0.0
1690421350.802444,215.33203125,-46.38671875,-38.57421875,-46.38671875,0.0
1690421350.8063443,287.59765625,-40.0390625,-37.59765625,-49.31640625,0.0
1690421350.8102448,611.81640625,-43.9453125,-30.76171875,-7.8125,0.0
1690421350.814145,687.5,-52.24609375,-30.76171875,-6.8359375,0.0
1690421350.8180456,365.72265625,-45.8984375,-39.0625,-57.6171875,0.0
1690421350.8219461,304.6875,-40.0390625,-47.36328125,-71.2890625,0.0
1690421350.8258464,549.31640625,-46.875,-46.875,-30.76171875,0.0
1690421350.829747,701.171875,-49.31640625,-37.109375,3.90625,0.0
1690421350.8336475,350.09765625,-42.96875,-27.34375,-30.76171875,0.0
1690421350.8375478,133.30078125,-38.0859375,-39.55078125,-63.96484375,0.0
1690421350.8414483,259.765625,-45.41015625,-50.29296875,-54.19921875,0.0
1690421350.8454175,492.67578125,-48.828125,-43.45703125,-7.8125,0.0
1690421350.8493178,223.14453125,-37.109375,-30.76171875,-18.06640625,0.0
1690421350.8532183,-132.8125,-33.69140625,-29.78515625,-53.7109375,0.0
1690421350.8571188,-103.02734375,-38.57421875,-30.76171875,-42.96875,0.0
1690421350.8610191,149.4140625,-47.8515625,-22.4609375,8.30078125,0.0
1690421350.8649197,-5.37109375,-48.33984375,-21.97265625,13.671875,0.0
1690421350.86882,-411.62109375,-35.64453125,-21.97265625,-38.0859375,0.0
1690421350.8727205,-455.078125,-42.48046875,-25.390625,-44.921875,0.0
1690421350.876621,-198.73046875,-41.9921875,-25.390625,5.37109375,0.0
1690421350.8805213,-156.73828125,-37.109375,-22.94921875,30.2734375,0.0
1690421350.8844218,-551.7578125,-48.828125,-24.4140625,-15.625,0.0
1690421350.8883224,-665.52734375,-36.1328125,-35.15625,-41.9921875,0.0
1690421350.8923385,-433.10546875,-23.92578125,-45.41015625,-22.4609375,0.0
1690421350.8962388,-201.66015625,-30.2734375,-34.1796875,32.2265625,0.0
1690421350.9001393,-479.4921875,-33.203125,-31.25,-1.953125,0.0
1690421350.9040396,-679.6875,-35.15625,-34.1796875,-44.921875,0.0
1690421350.9079401,-502.9296875,-41.015625,-32.71484375,-17.08984375,0.0
1690421350.9118407,-172.8515625,-40.52734375,-39.55078125,36.62109375,0.0
1690421350.915741,-331.0546875,-45.41015625,-49.31640625,21.97265625,0.0
1690421350.9196415,-611.328125,-62.5,-43.9453125,-32.71484375,0.0
1690421350.923542,-500.9765625,-50.78125,-26.3671875,-13.18359375,0.0
1690421350.9274423,-145.99609375,-30.2734375,-19.53125,36.1328125,0.0
1690421350.9313428,-176.26953125,-35.15625,-19.04296875,23.4375,0.0
1690421350.9352434,-510.25390625,-50.78125,-20.01953125,-25.87890625,0.0
1690421350.9392314,-497.55859375,-48.33984375,-33.203125,-37.59765625,0.0
1690421350.943132,-134.27734375,-33.69140625,-35.64453125,2.9296875,0.0
1690421350.9470325,42.48046875,-20.5078125,-17.578125,45.8984375,0.0
1690421350.9509327,-312.01171875,-42.96875,-25.87890625,0.9765625,0.0
1690421350.9548333,-409.66796875,-57.12890625,-42.48046875,-33.203125,0.0
1690421350.9587338,-104.98046875,-40.0390625,-39.55078125,-12.6953125,0.0
1690421350.962634,196.77734375,-35.64453125,-41.015625,17.578125,0.0
1690421350.9665346,-71.77734375,-47.36328125,-41.015625,-14.16015625,0.0
1690421350.9704351,-273.92578125,-48.33984375,-44.921875,-64.94140625,0.0
1690421350.9743354,-67.87109375,-34.1796875,-43.45703125,-51.7578125,0.0
1690421350.978236,291.015625,-33.203125,-50.78125,6.8359375,0.0
1690421350.9821365,160.15625,-31.73828125,-64.94140625,-23.92578125,0.0
1690421350.9861465,-159.66796875,-25.390625,-73.2421875,-88.37890625,0.0
1690421350.9900467,-107.421875,-15.625,-67.87109375,-87.40234375,0.0
1690421350.9939473,250.0,-17.08984375,-61.5234375,-36.62109375,0.0
1690421350.9978478,285.15625,-15.625,-59.5703125,-29.78515625,0.0
1690421351.001748,-64.453125,-21.97265625,-73.73046875,-81.54296875,0.0
1690421351.0056486,-51.7578125,-24.4140625,-83.49609375,-83.49609375,0.0
1690421351.0095491,281.73828125,-15.625,-53.22265625,-36.1328125,0.0
1690421351.0134497,451.171875,-21.97265625,-40.0390625,-4.8828125,0.0
1690421351.01735,140.13671875,-22.94921875,-49.8046875,-68.359375,0.0
1690421351.0212505,-2.9296875,-36.62109375,-48.33984375,-103.02734375,0.0
1690421351.025151,177.734375,-40.0390625,-56.15234375,-64.453125,0.0
1690421351.0290513,413.0859375,-27.83203125,-57.6171875,-12.20703125,0.0
1690421351.033033,165.52734375,-12.6953125,-46.875,-25.390625,0.0
1690421351.0369334,-122.0703125,-15.625,-55.6640625,-66.89453125,0.0
1690421351.040834,-57.12890625,-21.484375,-59.08203125,-63.4765625,0.0
1690421351.0447342,210.9375,-19.04296875,-55.6640625,-19.53125,0.0
1690421351.0486348,77.63671875,-27.34375,-54.19921875,-13.18359375,0.0
1690421351.0525353,-263.671875,-31.25,-57.12890625,-62.5,0.0
1690421351.0564356,-265.13671875,-27.34375,-61.03515625,-60.05859375,0.0
1690421351.060336,8.7890625,-25.87890625,-62.98828125,-1.953125,0.0
1690421351.0642366,41.50390625,-30.2734375,-47.36328125,5.859375,0.0
1690421351.0681372,-311.03515625,-43.9453125,-28.80859375,-41.9921875,0.0
1690421351.0720375,-394.53125,-39.55078125,-32.2265625,-45.41015625,0.0
1690421351.075938,-98.14453125,-12.6953125,-34.66796875,1.953125,0.0
1690421351.0799165,105.46875,-22.4609375,-33.69140625,33.203125,0.0
1690421351.083817,-210.9375,-41.015625,-48.828125,-16.6015625,0.0
1690421351.0877175,-347.65625,-18.06640625,-46.38671875,-38.57421875,0.0
1690421351.091618,-137.6953125,-19.53125,-45.41015625,-15.13671875,0.0
1690421351.0955184,171.875,-34.1796875,-52.734375,24.90234375,0.0
1690421351.0994189,-19.53125,-52.734375,-56.640625,-5.37109375,0.0
1690421351.1033194,-273.4375,-54.19921875,-58.59375,-62.98828125,0.0
1690421351.1072197,-134.765625,-36.1328125,-49.8046875,-50.78125,0.0
1690421351.1111202,188.4765625,-33.69140625,-46.875,0.0,0.0
1690421351.1150208,145.01953125,-29.296875,-45.8984375,-6.8359375,0.0
1690421351.1189213,-134.765625,-21.97265625,-52.24609375,-62.01171875,0.0
1690421351.1228216,-95.21484375,-17.578125,-43.9453125,-56.640625,0.0
1690421351.1267972,79.58984375,-7.32421875,-44.921875,-42.96875,0.0
1690421351.1306977,129.39453125,-7.32421875,-74.21875,-42.96875,0.0
1690421351.1345983,7.32421875,-25.87890625,-57.6171875,-25.390625,0.0
1690421351.1384985,-12.20703125,-26.3671875,-27.83203125,-29.296875,0.0
1690421351.142399,95.703125,-19.04296875,-26.3671875,-51.7578125,0.0
1690421351.1462996,144.04296875,-28.80859375,-24.4140625,-68.84765625,0.0
1690421351.1502001,-18.06640625,-32.71484375,-20.01953125,-99.609375,0.0
1690421351.1541004,-110.3515625,-40.0390625,-7.32421875,-133.7890625,0.0
1690421351.158001,-22.4609375,-24.90234375,6.34765625,-124.0234375,0.0
1690421351.1619015,89.84375,-3.90625,15.625,-111.81640625,0.0
1690421351.165802,-65.91796875,-23.92578125,15.13671875,-167.48046875,0.0
1690421351.1697023,-210.9375,-44.921875,2.9296875,-198.2421875,0.0
1690421351.1736746,-164.0625,-56.640625,-12.6953125,-189.94140625,0.0
1690421351.1775749,-34.1796875,-44.921875,3.90625,-186.5234375,0.0
1690421351.1814754,-46.38671875,-18.06640625,60.546875,-164.0625,0.0
1690421351.185376,-225.09765625,-45.41015625,38.0859375,-208.984375,0.0
1690421351.1892765,-235.3515625,-72.75390625,-4.8828125,-249.51171875,0.0
1690421351.1931767,-66.40625,-52.734375,28.80859375,-200.68359375,0.0
1690421351.1970773,-46.38671875,-44.43359375,41.9921875,-186.03515625,0.0
1690421351.2009778,-204.1015625,-62.98828125,65.4296875,-198.2421875,0.0
1690421351.2048783,-254.39453125,-89.84375,39.0625,-225.09765625,0.0
1690421351.2087786,-116.2109375,-83.0078125,-19.53125,-210.44921875,0.0
1690421351.2126791,-8.7890625,-71.77734375,25.390625,-181.640625,0.0
1690421351.2165797,-155.76171875,-79.1015625,44.43359375,-200.68359375,0.0
1690421351.2205489,-218.75,-84.9609375,27.34375,-214.35546875,0.0
1690421351.2244494,-116.69921875,-79.58984375,22.94921875,-187.5,0.0
1690421351.2283497,13.18359375,-76.66015625,8.7890625,-161.62109375,0.0
1690421351.2322502,-56.640625,-69.82421875,16.6015625,-170.8984375,0.0
1690421351.2361507,-140.625,-69.82421875,-18.5546875,-164.55078125,0.0
1690421351.2400513,-150.87890625,-66.89453125,-38.0859375,-152.83203125,0.0
1690421351.2439518,59.08203125,-56.15234375,-12.6953125,-97.16796875,0.0
1690421351.247852,53.7109375,-77.1484375,6.34765625,-109.375,0.0
1690421351.2517526,-251.46484375,-78.125,14.6484375,-162.109375,0.0
1690421351.2556531,-261.71875,-64.453125,20.5078125,-157.71484375,0.0
1690421351.2595537,38.57421875,-89.84375,-5.37109375,-123.53515625,0.0
1690421351.263454,185.05859375,-85.44921875,-14.6484375,-74.21875,0.0
1690421351.2674198,-136.71875,-61.5234375,-19.04296875,-110.3515625,0.0
1690421351.2713203,-228.02734375,-70.3125,-37.109375,-137.20703125,0.0
1690421351.2752209,35.15625,-89.84375,-17.578125,-92.28515625,0.0
1690421351.2791214,285.15625,-91.796875,-20.5078125,-41.50390625,0.0
1690421351.2830217,-15.13671875,-86.9140625,-51.26953125,-94.7265625,0.0
1690421351.2869222,-214.84375,-72.265625,-35.15625,-96.6796875,0.0
1690421351.2908227,-1.953125,-61.5234375,-0.48828125,-28.3203125,0.0
1690421351.2947233,317.3828125,-78.125,-15.625,9.27734375,0.0
1690421351.2986238,149.90234375,-87.40234375,-31.25,-24.90234375,0.0
1690421351.302524,-149.4140625,-77.1484375,-42.48046875,-67.3828125,0.0
1690421351.3064246,-88.8671875,-76.66015625,-51.26953125,-66.40625,0.0
1690421351.3103251,244.62890625,-78.125,-24.90234375,-1.46484375,0.0
1690421351.3143127,241.69921875,-77.1484375,-36.62109375,25.87890625,0.0
1690421351.3182132,-123.046875,-90.8203125,-41.015625,-41.9921875,0.0
1690421351.3221138,-156.73828125,-100.5859375,-66.89453125,-53.7109375,0.0
1690421351.3260143,165.0390625,-93.75,-106.4453125,4.8828125,0.0
1690421351.3299146,329.1015625,-86.9140625,-38.57421875,34.66796875,0.0
1690421351.333815,-49.31640625,-92.7734375,-0.9765625,-28.3203125,0.0
1690421351.3377156,-175.29296875,-82.51953125,-11.23046875,-48.828125,0.0
1690421351.3416162,79.58984375,-76.171875,-29.296875,-18.06640625,0.0
1690421351.3455167,349.609375,-85.9375,-64.94140625,30.76171875,0.0
1690421351.349417,78.125,-83.984375,-63.96484375,2.44140625,0.0
1690421351.3533175,-162.109375,-86.9140625,-61.5234375,-49.8046875,0.0
1690421351.357218,-0.9765625,-86.42578125,-94.23828125,-33.203125,0.0
1690421351.3612053,354.00390625,-81.0546875,-79.58984375,41.015625,0.0
1690421351.3651056,251.953125,-71.77734375,-54.19921875,60.546875,0.0
1690421351.3690062,-89.84375,-72.75390625,-73.2421875,0.0,0.0
1690421351.3729067,-41.50390625,-83.0078125,-70.3125,-22.4609375,0.0
1690421351.3768072,302.24609375,-84.47265625,-41.015625,57.6171875,0.0
1690421351.3807077,333.984375,-81.54296875,-37.59765625,95.21484375,0.0
1690421351.384608,-13.671875,-76.171875,-51.26953125,20.5078125,0.0
1690421351.3885086,-66.40625,-68.84765625,-60.546875,-6.34765625,0.0
1690421351.392409,244.140625,-63.96484375,-62.5,59.08203125,0.0
1690421351.3963096,438.4765625,-58.10546875,-84.9609375,116.69921875,0.0
1690421351.4002101,82.03125,-52.734375,-70.80078125,50.29296875,0.0
1690421351.4041104,-96.19140625,-58.10546875,-20.01953125,0.0,0.0
1690421351.4080918,111.328125,-61.5234375,-24.90234375,31.73828125,0.0
1690421351.4119923,403.3203125,-52.734375,-44.43359375,95.703125,0.0
1690421351.4158928,135.25390625,-50.78125,-48.33984375,55.17578125,0.0
1690421351.4197934,-145.99609375,-54.19921875,-62.98828125,-10.25390625,0.0
1690421351.423694,-29.78515625,-61.5234375,-82.51953125,-8.30078125,0.0
1690421351.4275942,295.41015625,-63.96484375,-74.70703125,68.359375,0.0
1690421351.4314947,184.08203125,-55.17578125,-50.78125,66.40625,0.0
1690421351.4353952,-184.08203125,-62.98828125,-45.8984375,-29.78515625,0.0
1690421351.4392958,-159.66796875,-65.91796875,-57.6171875,-31.25,0.0
1690421351.4431963,175.78125,-41.9921875,-64.453125,38.57421875,0.0
1690421351.4470968,230.46875,-27.34375,-55.6640625,47.8515625,0.0
1690421351.450997,-135.7421875,-35.64453125,-52.24609375,-18.06640625,0.0
1690421351.4549763,-217.7734375,-43.45703125,-73.2421875,-53.22265625,0.0
1690421351.4588768,64.453125,-33.69140625,-82.51953125,-1.46484375,0.0
1690421351.4627771,289.0625,-24.4140625,-78.61328125,60.546875,0.0
1690421351.4666777,-57.6171875,-43.9453125,-83.49609375,-25.87890625,0.0
1690421351.4705782,-241.69921875,-38.57421875,-74.21875,-74.70703125,0.0
1690421351.4744787,-39.0625,-32.71484375,-61.03515625,-40.0390625,0.0
1690421351.4783792,256.8359375,-37.59765625,-62.01171875,17.08984375,0.0
1690421351.4822798,17.08984375,-34.66796875,-61.03515625,-20.99609375,0.0
1690421351.4861803,-289.0625,-28.3203125,-43.45703125,-82.03125,0.0
1690421351.4900806,-198.73046875,-38.57421875,-50.78125,-74.70703125,0.0
1690421351.4939811,154.296875,-39.0625,-59.08203125,-4.8828125,0.0
1690421351.4978817,115.234375,-26.3671875,-49.31640625,13.18359375,0.0
1690421351.501856,-228.02734375,-27.34375,-49.8046875,-43.45703125,0.0
1690421351.5057566,-234.86328125,-34.1796875,-40.52734375,-63.4765625,0.0
1690421351.5096571,97.16796875,-25.390625,-66.89453125,13.18359375,0.0
1690421351.5135577,197.265625,-18.5546875,-98.6328125,48.828125,0.0
1690421351.5174582,-190.91796875,-26.3671875,-50.78125,-41.015625,0.0
1690421351.5213587,-294.43359375,-26.3671875,-4.8828125,-69.3359375,0.0
1690421351.5252593,-32.71484375,-35.15625,-11.71875,-27.34375,0.0
1690421351.5291595,200.1953125,-34.66796875,-20.99609375,41.9921875,0.0
1690421351.53306,-108.3984375,-23.4375,-30.2734375,-6.8359375,0.0
1690421351.5369606,-323.2421875,-29.78515625,-46.875,-72.265625,0.0
1690421351.5408611,-145.99609375,-41.015625,-53.22265625,-48.828125,0.0
1690421351.5447617,163.0859375,-47.36328125,-52.734375,11.71875,0.0
1690421351.5487335,-33.69140625,-45.8984375,-55.6640625,-24.4140625,0.0
1690421351.552634,-335.9375,-50.78125,-61.03515625,-105.46875,0.0
1690421351.5565345,-258.7890625,-52.734375,-65.4296875,-93.26171875,0.0
1690421351.560435,74.21875,-43.9453125,-62.5,-7.32421875,0.0
1690421351.5643356,39.0625,-35.64453125,-63.96484375,-4.8828125,0.0
1690421351.568236,-319.3359375,-43.9453125,-67.3828125,-95.703125,0.0
1690421351.5721366,-316.40625,-35.64453125,-51.26953125,-103.02734375,0.0
1690421351.576037,16.11328125,-16.11328125,-39.55078125,-20.5078125,0.0
1690421351.5799375,141.6015625,-9.27734375,-33.69140625,18.5546875,0.0
1690421351.583838,-220.703125,-30.76171875,-42.48046875,-68.359375,0.0
1690421351.5877385,-333.0078125,-46.38671875,-52.734375,-115.72265625,0.0
1690421351.591639,-80.078125,-29.78515625,-56.15234375,-68.84765625,0.0
1690421351.5956078,175.29296875,-14.16015625,-48.33984375,9.765625,0.0
1690421351.5995083,-106.93359375,-15.13671875,-59.08203125,-43.9453125,0.0
1690421351.6034088,-344.7265625,-30.76171875,-59.08203125,-122.0703125,0.0
1690421351.6073093,-158.69140625,-23.4375,-38.57421875,-87.40234375,0.0
1690421351.6112099,165.52734375,-7.8125,-45.41015625,3.41796875,0.0
1690421351.6151102,-21.97265625,-23.4375,-57.12890625,-36.62109375,0.0
1690421351.6190107,-311.5234375,-31.73828125,-46.875,-108.88671875,0.0
1690421351.6229112,-232.91015625,-20.99609375,-40.52734375,-93.75,0.0
1690421351.6268117,117.67578125,-16.11328125,-44.921875,-21.484375,0.0
1690421351.6307123,120.60546875,-16.6015625,-43.45703125,-14.6484375,0.0
1690421351.6346128,-236.328125,-17.08984375,-56.640625,-85.44921875,0.0
1690421351.6385133,-256.8359375,-13.671875,-50.78125,-80.56640625,0.0
1690421351.6424794,46.875,-9.765625,-22.94921875,-4.39453125,0.0
1690421351.64638,191.40625,-20.99609375,-29.296875,35.64453125,0.0
1690421351.6502805,-161.1328125,-32.2265625,-46.875,-44.921875,0.0
1690421351.654181,-286.1328125,-20.01953125,-39.55078125,-82.03125,0.0
1690421351.6580815,-34.66796875,-12.20703125,-34.66796875,-35.64453125,0.0
1690421351.661982,235.83984375,-14.6484375,-44.921875,39.0625,0.0
1690421351.6658826,-36.1328125,-17.08984375,-42.96875,-7.32421875,0.0
1690421351.669783,-284.66796875,-21.97265625,-33.203125,-91.796875,0.0
1690421351.6736834,-134.765625,-12.20703125,-25.87890625,-70.80078125,0.0
1690421351.677584,197.75390625,-8.7890625,-41.9921875,20.99609375,0.0
1690421351.6814845,62.98828125,-11.23046875,-38.57421875,2.44140625,0.0
1690421351.685385,-257.8125,-0.48828125,-18.06640625,-76.171875,0.0
1690421351.6893969,-242.67578125,-4.8828125,-45.8984375,-93.26171875,0.0
1690421351.6932974,83.49609375,9.765625,-46.38671875,-7.8125,0.0
1690421351.697198,139.16015625,21.97265625,-20.5078125,31.25,0.0
1690421351.7010984,-219.7265625,16.6015625,-32.71484375,-61.03515625,0.0
1690421351.704999,-277.34375,15.625,-61.03515625,-100.09765625,0.0
1690421351.7088995,7.8125,3.41796875,-64.453125,-39.55078125,0.0
1690421351.7128,207.03125,8.7890625,-37.109375,20.01953125,0.0
1690421351.7167003,-108.88671875,18.5546875,-26.3671875,-51.26953125,0.0
1690421351.7206008,-261.71875,20.5078125,-46.875,-95.703125,0.0
1690421351.7245014,-38.57421875,25.87890625,-51.26953125,-46.875,0.0
1690421351.728402,251.953125,20.01953125,-40.0390625,30.76171875,0.0
1690421351.7323024,15.13671875,19.53125,-30.76171875,-20.5078125,0.0
1690421351.7362862,-245.60546875,9.27734375,-29.78515625,-103.02734375,0.0
1690421351.7401867,-119.62890625,6.34765625,-45.8984375,-76.171875,0.0
1690421351.7440872,209.9609375,19.04296875,-47.8515625,17.08984375,0.0
1690421351.7479877,95.21484375,22.4609375,-60.05859375,-0.48828125,0.0
1690421351.7518883,-247.0703125,24.90234375,-69.82421875,-82.51953125,0.0
1690421351.7557888,-208.0078125,29.296875,-32.2265625,-79.1015625,0.0
1690421351.7596893,128.41796875,45.8984375,-20.5078125,8.7890625,0.0
1690421351.7635899,186.5234375,52.24609375,-41.50390625,37.109375,0.0
1690421351.7674904,-180.17578125,32.71484375,-62.01171875,-63.96484375,0.0
1690421351.771391,-232.421875,31.25,-64.94140625,-82.51953125,0.0
1690421351.7752914,28.3203125,23.92578125,-30.76171875,-21.97265625,0.0
1690421351.779192,207.03125,14.16015625,-39.55078125,13.671875,0.0
1690421351.7831974,-110.83984375,12.20703125,-57.6171875,-52.24609375,0.0
1690421351.787098,-281.25,11.71875,-51.26953125,-95.21484375,0.0
1690421351.7909985,-72.265625,13.671875,-73.73046875,-50.29296875,0.0
1690421351.794899,224.12109375,16.11328125,-50.29296875,42.96875,0.0
1690421351.7987995,11.23046875,20.01953125,-13.671875,13.671875,0.0
1690421351.8027,-289.0625,1.46484375,-32.71484375,-77.63671875,0.0
1690421351.8066006,-205.078125,0.9765625,-35.15625,-62.5,0.0
1690421351.810501,122.0703125,9.27734375,-21.97265625,26.85546875,0.0
1690421351.8144016,41.015625,19.04296875,-28.3203125,15.625,0.0
1690421351.8183022,-312.98828125,27.34375,-27.34375,-56.15234375,0.0
1690421351.8222027,-323.2421875,14.16015625,-33.69140625,-72.265625,0.0
1690421351.8261032,-41.9921875,14.6484375,-38.0859375,-8.30078125,0.0
1690421351.8300805,36.1328125,28.80859375,-49.8046875,27.83203125,0.0
1690421351.833981,-333.49609375,29.296875,-62.01171875,-62.5,0.0
1690421351.8378816,-447.75390625,16.11328125,-59.08203125,-92.7734375,0.0
1690421351.841782,-190.4296875,27.34375,-44.921875,-7.8125,0.0
1690421351.8456826,12.6953125,16.6015625,-34.66796875,39.0625,0.0
1690421351.8495831,-312.01171875,3.41796875,-29.296875,-45.8984375,0.0
1690421351.8534837,-522.94921875,5.37109375,-28.3203125,-96.6796875,0.0
1690421351.8573842,-366.2109375,0.0,-27.83203125,-53.7109375,0.0
1690421351.8612847,-77.63671875,6.34765625,-36.1328125,31.73828125,0.0
1690421351.8651853,-245.60546875,3.90625,-65.4296875,-6.34765625,0.0
1690421351.8690858,-532.71484375,-3.90625,-46.875,-85.44921875,0.0
1690421351.8729863,-476.5625,-3.90625,-16.11328125,-71.2890625,0.0
1690421351.8769608,-186.03515625,-3.41796875,-33.69140625,6.8359375,0.0
1690421351.8808613,-203.61328125,-5.37109375,-39.0625,10.25390625,0.0
1690421351.8847618,-514.16015625,-1.953125,-25.87890625,-62.01171875,0.0
1690421351.8886623,-554.19921875,-6.34765625,-29.78515625,-84.47265625,0.0
1690421351.8925629,-283.203125,-14.6484375,-30.76171875,-23.92578125,0.0
1690421351.8964634,-139.16015625,-3.90625,-27.34375,29.296875,0.0
1690421351.9003637,-468.75,-2.9296875,-39.55078125,-50.29296875,0.0
1690421351.9042642,-598.14453125,-11.23046875,-35.64453125,-88.8671875,0.0
1690421351.9081647,-346.19140625,-4.39453125,-38.0859375,-28.80859375,0.0
1690421351.9120653,-95.21484375,-1.46484375,-37.109375,43.45703125,0.0
1690421351.9159658,-395.5078125,-15.13671875,-36.1328125,-26.3671875,0.0
1690421351.9198663,-625.48828125,-9.27734375,-33.203125,-83.49609375,0.0
1690421351.9238377,-457.03125,-4.8828125,-33.203125,-40.52734375,0.0
1690421351.9277382,-126.46484375,-15.13671875,-44.921875,38.0859375,0.0
1690421351.9316387,-287.109375,-8.30078125,-37.109375,6.8359375,0.0
1690421351.9355392,-606.4453125,-10.7421875,-29.296875,-77.63671875,0.0
1690421351.9394398,-552.734375,-10.25390625,-47.36328125,-79.1015625,0.0
1690421351.9433403,-233.88671875,-14.6484375,-68.84765625,-3.90625,0.0
1690421351.9472408,-227.5390625,-20.01953125,-53.22265625,25.87890625,0.0
1690421351.9511414,-566.89453125,0.48828125,-36.1328125,-46.38671875,0.0
1690421351.955042,-606.93359375,-8.7890625,-50.29296875,-80.56640625,0.0
1690421351.9589424,-333.984375,-31.73828125,-53.7109375,-21.97265625,0.0
1690421351.962843,-169.921875,-30.76171875,-47.36328125,26.3671875,0.0
1690421351.9667435,-505.37109375,-25.87890625,-45.8984375,-50.78125,0.0
1690421351.9707115,-651.85546875,-33.69140625,-38.57421875,-91.30859375,0.0
1690421351.974612,-427.734375,-42.48046875,-35.15625,-37.109375,0.0
1690421351.9785125,-171.875,-31.73828125,-40.0390625,42.96875,0.0
1690421351.982413,-448.73046875,-25.87890625,-39.0625,-22.94921875,0.0
1690421351.9863136,-688.96484375,-34.66796875,-51.7578125,-83.984375,0.0
1690421351.990214,-542.96875,-41.015625,-60.05859375,-44.921875,0.0
1690421351.9941146,-224.12109375,-34.66796875,-45.8984375,47.8515625,0.0
1690421351.9980152,-340.33203125,-18.06640625,-21.97265625,39.55078125,0.0
1690421352.0019157,-656.73828125,-25.87890625,-34.1796875,-60.546875,0.0
1690421352.0058162,-604.00390625,-37.59765625,-44.43359375,-55.17578125,0.0
1690421352.0097167,-241.2109375,-32.71484375,-26.85546875,42.48046875,0.0
1690421352.0136173,-199.21875,-34.1796875,-18.06640625,41.9921875,0.0
1690421352.0175831,-540.52734375,-30.2734375,-19.53125,-47.36328125,0.0
1690421352.0214837,-560.546875,-29.78515625,-30.2734375,-57.12890625,0.0
1690421352.0253842,-264.6484375,-31.25,-61.03515625,10.25390625,0.0
1690421352.0292847,-57.12890625,-23.92578125,-58.10546875,76.171875,0.0
1690421352.0331852,-350.5859375,-21.484375,-22.4609375,-1.953125,0.0
1690421352.0370858,-472.65625,-31.73828125,-16.6015625,-52.734375,0.0
1690421352.0409863,-188.4765625,-37.59765625,-32.2265625,3.41796875,0.0
1690421352.0448868,173.33984375,-21.484375,-27.34375,97.65625,0.0
1690421352.0487874,-25.87890625,-20.99609375,5.37109375,52.24609375,0.0
1690421352.052688,-257.8125,-36.1328125,3.90625,-37.59765625,0.0
1690421352.0565884,-120.60546875,-41.015625,-11.71875,-27.83203125,0.0
1690421352.060489,230.95703125,-41.015625,-25.87890625,58.59375,0.0
1690421352.0645008,181.640625,-29.296875,-24.4140625,52.24609375,0.0
1690421352.0684013,-81.54296875,-23.4375,-38.57421875,-26.3671875,0.0
1690421352.0723019,-2.44140625,-27.34375,-47.36328125,-41.015625,0.0
1690421352.0762024,332.03125,-21.97265625,-33.203125,34.66796875,0.0
1690421352.080103,418.45703125,-20.5078125,-46.38671875,67.87109375,0.0
1690421352.0840034,103.515625,-24.4140625,-43.9453125,-20.01953125,0.0
1690421352.087904,81.0546875,-22.94921875,-25.390625,-49.31640625,0.0
1690421352.0918045,377.9296875,-17.08984375,-13.18359375,14.6484375,0.0
1690421352.095705,584.47265625,-20.5078125,-17.578125,71.2890625,0.0
1690421352.0996058,282.71484375,-34.1796875,-48.33984375,-10.7421875,0.0
1690421352.1035063,117.67578125,-33.203125,-51.7578125,-67.3828125,0.0
1690421352.1074069,313.96484375,-20.99609375,-31.25,-20.99609375,0.0
1690421352.1113908,574.70703125,-21.97265625,-33.203125,57.12890625,0.0
1690421352.1152914,332.51953125,-38.57421875,-61.03515625,-4.8828125,0.0
1690421352.119192,41.9921875,-51.26953125,-55.6640625,-98.6328125,0.0
1690421352.1230924,148.92578125,-48.33984375,-34.66796875,-70.3125,0.0
1690421352.126993,425.78125,-41.50390625,-40.52734375,9.765625,0.0
1690421352.1308935,316.40625,-37.59765625,-41.015625,-5.859375,0.0
1690421352.134794,45.41015625,-38.0859375,-34.66796875,-81.0546875,0.0
1690421352.1386945,62.5,-43.9453125,-32.71484375,-96.6796875,0.0
1690421352.142595,369.62890625,-37.109375,-35.15625,-5.37109375,0.0
1690421352.1464956,434.08203125,-32.71484375,-44.921875,37.59765625,0.0
1690421352.1503963,70.80078125,-41.50390625,-27.34375,-53.7109375,0.0
1690421352.1542969,-46.875,-48.828125,-21.484375,-77.1484375,0.0
1690421352.1582778,168.9453125,-55.17578125,-32.71484375,-22.4609375,0.0
1690421352.1621783,382.8125,-45.41015625,-32.2265625,42.48046875,0.0
1690421352.1660788,69.82421875,-51.7578125,-43.45703125,-27.34375,0.0
1690421352.1699793,-147.94921875,-75.68359375,-51.26953125,-110.83984375,0.0
1690421352.1738799,36.62109375,-58.59375,-47.8515625,-62.5,0.0
1690421352.1777804,309.08203125,-51.26953125,-20.5078125,28.3203125,0.0
1690421352.181681,108.88671875,-61.03515625,-13.671875,-13.671875,0.0
1690421352.1855814,-165.52734375,-53.7109375,-25.87890625,-99.609375,0.0
1690421352.189482,-89.84375,-76.171875,-17.08984375,-64.453125,0.0
1690421352.1933827,280.2734375,-71.77734375,-24.4140625,65.4296875,0.0
1690421352.1972833,245.60546875,-41.9921875,-37.59765625,29.78515625,0.0
1690421352.2011838,-109.86328125,-35.64453125,-36.62109375,-120.60546875,0.0
1690421352.2051616,-102.5390625,-23.92578125,-38.57421875,-161.1328125,0.0
1690421352.209062,190.4296875,-18.06640625,-54.19921875,-59.08203125,0.0
1690421352.2129626,320.3125,-6.34765625,-53.22265625,18.06640625,0.0
1690421352.2168632,-2.44140625,-6.34765625,-31.73828125,-77.63671875,0.0
1690421352.220764,-99.12109375,-20.01953125,-49.8046875,-142.08984375,0.0
1690421352.2246644,136.23046875,-17.08984375,-70.80078125,-79.58984375,0.0
1690421352.228565,357.421875,-13.18359375,-71.77734375,-2.9296875,0.0
1690421352.2324655,96.19140625,-16.11328125,-64.94140625,-57.6171875,0.0
1690421352.236366,-104.4921875,-25.390625,-58.59375,-123.046875,0.0
1690421352.2402666,48.33984375,-32.2265625,-71.77734375,-101.5625,0.0
1690421352.244167,348.14453125,-21.484375,-68.359375,-23.4375,0.0
1690421352.2480676,219.7265625,-13.18359375,-68.84765625,-31.25,0.0
1690421352.2520425,-62.98828125,-34.1796875,-70.3125,-102.05078125,0.0
1690421352.255943,-19.53125,-38.57421875,-51.7578125,-111.81640625,0.0
1690421352.2598436,295.41015625,-16.11328125,-47.8515625,-13.18359375,0.0
1690421352.263744,297.36328125,-13.18359375,-43.45703125,-2.9296875,0.0
1690421352.2676446,-48.828125,-34.66796875,-46.875,-125.48828125,0.0
1690421352.2715452,-78.61328125,-38.0859375,-56.15234375,-114.74609375,0.0
1690421352.2754457,198.73046875,-28.3203125,-64.94140625,-29.296875,0.0
1690421352.2793465,325.68359375,-35.64453125,-62.5,27.83203125,0.0
1690421352.283247,10.25390625,-39.0625,-45.41015625,-37.109375,0.0
1690421352.2871475,-128.90625,-39.55078125,-51.7578125,-102.5390625,0.0
1690421352.291048,71.77734375,-40.52734375,-74.70703125,-50.29296875,0.0
1690421352.2949486,329.58984375,-32.2265625,-65.4296875,31.25,0.0
1690421352.2989202,90.33203125,-29.78515625,-42.96875,-37.59765625,0.0
1690421352.302821,-132.8125,-29.78515625,-49.31640625,-135.25390625,0.0
1690421352.3067214,6.8359375,-26.85546875,-49.31640625,-86.42578125,0.0
1690421352.310622,306.640625,-31.73828125,-66.40625,23.4375,0.0
1690421352.3145225,182.12890625,-52.734375,-76.66015625,-45.41015625,0.0
1690421352.318423,-99.609375,-60.546875,-55.17578125,-136.71875,0.0
1690421352.3223236,-29.78515625,-59.5703125,-46.875,-97.65625,0.0
1690421352.326224,303.7109375,-50.78125,-39.55078125,-28.3203125,0.0
1690421352.3301246,354.4921875,-40.52734375,-36.1328125,0.48828125,0.0
1690421352.3340254,53.7109375,-42.96875,-70.80078125,-39.55078125,0.0
1690421352.337926,34.1796875,-45.41015625,-72.75390625,-71.2890625,0.0
1690421352.3418264,307.12890625,-54.19921875,-28.80859375,-50.78125,0.0
1690421352.3457942,482.421875,-50.78125,-35.64453125,5.37109375,0.0
1690421352.3496947,219.23828125,-26.85546875,-51.7578125,-13.671875,0.0
1690421352.3535953,91.796875,-32.71484375,-49.8046875,-54.19921875,0.0
1690421352.357496,272.4609375,-52.734375,-55.17578125,-57.12890625,0.0
1690421352.3613966,530.2734375,-52.734375,-43.9453125,31.25,0.0
1690421352.365297,304.19921875,-50.78125,-36.1328125,-23.92578125,0.0
1690421352.3691976,71.2890625,-45.8984375,-54.6875,-76.66015625,0.0
1690421352.3730981,202.63671875,-45.41015625,-65.91796875,-32.2265625,0.0
1690421352.3769987,510.25390625,-47.36328125,-41.9921875,13.18359375,0.0
1690421352.3808992,421.38671875,-55.17578125,-36.62109375,-14.16015625,0.0
1690421352.3848,148.4375,-52.24609375,-46.38671875,-49.8046875,0.0
1690421352.3887005,206.0546875,-45.41015625,-42.96875,-60.05859375,0.0
1690421352.3926659,527.83203125,-51.26953125,-56.640625,2.9296875,0.0
1690421352.3965664,575.1953125,-45.41015625,-51.7578125,70.3125,0.0
1690421352.400467,204.58984375,-57.6171875,-32.71484375,-50.78125,0.0
1690421352.4043677,158.203125,-55.17578125,-16.11328125,-97.16796875,0.0
1690421352.4082682,435.546875,-48.33984375,3.90625,-11.23046875,0.0
1690421352.4121687,599.609375,-58.10546875,-35.15625,49.8046875,0.0
1690421352.4160693,291.50390625,-48.33984375,-37.109375,-11.23046875,0.0
1690421352.4199698,112.3046875,-58.10546875,-4.39453125,-80.078125,0.0
1690421352.4238703,278.80859375,-74.21875,-21.97265625,-60.05859375,0.0
1690421352.4277709,581.0546875,-57.12890625,-36.1328125,27.83203125,0.0
1690421352.4316716,391.6015625,-38.0859375,-27.83203125,20.5078125,0.0
1690421352.4355721,104.98046875,-43.9453125,-46.875,-51.26953125,0.0
1690421352.439558,187.5,-50.78125,-67.87109375,-60.546875,0.0
1690421352.4434586,478.02734375,-52.24609375,-46.38671875,40.0390625,0.0
1690421352.4473593,388.18359375,-54.6875,-31.25,42.48046875,0.0
1690421352.4512599,56.640625,-52.734375,-51.7578125,-50.29296875,0.0
1690421352.4551604,51.7578125,-44.921875,-52.734375,-70.3125,0.0
1690421352.459061,326.171875,-48.828125,-23.92578125,29.296875,0.0
1690421352.4629614,378.41796875,-55.6640625,-10.7421875,43.45703125,0.0
1690421352.466862,34.66796875,-43.9453125,-16.11328125,-58.59375,0.0
1690421352.4707627,-51.26953125,-41.9921875,-37.59765625,-56.15234375,0.0
