time,TP9,AF7,AF8,TP10,Right AUX
1685655594.6740649,-69.3359375,-42.48046875,-40.52734375,-23.92578125,0.0
1685655594.677961,-109.375,-45.41015625,-45.41015625,-50.29296875,0.0
1685655594.6818573,-33.69140625,-43.45703125,-38.0859375,-42.48046875,0.0
1685655594.6857536,55.17578125,-41.015625,-42.96875,-14.16015625,0.0
1685655594.68965,-33.203125,-37.59765625,-47.36328125,-8.30078125,0.0
1685655594.6935463,-112.3046875,-45.41015625,-39.0625,-31.73828125,0.0
1685655594.6974425,-55.6640625,-44.43359375,-36.62109375,-39.0625,0.0
1685655594.7013388,50.29296875,-32.2265625,-34.66796875,-0.48828125,0.0
1685655594.7052352,3.90625,-34.66796875,-38.57421875,0.9765625,0.0
1685655594.7091315,-102.5390625,-34.66796875,-36.62109375,-44.921875,0.0
1685655594.7130277,-66.89453125,-26.85546875,-33.69140625,-50.29296875,0.0
1685655594.716924,36.1328125,-29.296875,-33.203125,-4.8828125,0.0
1685655594.7209315,37.59765625,-36.62109375,-31.73828125,4.39453125,0.0
1685655594.7248278,-85.9375,-33.69140625,-29.78515625,-32.71484375,0.0
1685655594.728724,-82.03125,-36.62109375,-30.76171875,-47.36328125,0.0
1685655594.7326205,5.37109375,-41.50390625,-40.0390625,-33.69140625,0.0
1685655594.7365167,59.5703125,-37.109375,-38.0859375,-10.7421875,0.0
1685655594.740413,-48.33984375,-41.50390625,-31.25,-33.203125,0.0
1685655594.7443092,-84.9609375,-41.015625,-27.83203125,-54.19921875,0.0
1685655594.7482057,-15.13671875,-36.1328125,-36.62109375,-37.59765625,0.0
1685655594.752102,59.08203125,-42.48046875,-40.0390625,-8.30078125,0.0
1685655594.7559981,-27.34375,-42.48046875,-32.2265625,-16.11328125,0.0
1685655594.7598944,-104.00390625,-41.9921875,-38.0859375,-54.19921875,0.0
1685655594.7637908,-55.17578125,-40.0390625,-39.0625,-62.5,0.0
1685655594.7677927,38.0859375,-38.57421875,-29.78515625,-29.296875,0.0
1685655594.771689,2.44140625,-38.0859375,-28.80859375,-14.6484375,0.0
1685655594.7755852,-103.02734375,-41.015625,-30.2734375,-40.0390625,0.0
1685655594.7794816,-79.58984375,-47.36328125,-34.1796875,-51.26953125,0.0
1685655594.783378,20.01953125,-42.96875,-24.4140625,-28.80859375,0.0
1685655594.7872741,36.1328125,-34.66796875,-20.5078125,-9.765625,0.0
1685655594.7911704,-85.9375,-36.62109375,-38.0859375,-28.3203125,0.0
1685655594.7950668,-97.16796875,-41.015625,-40.52734375,-47.36328125,0.0
1685655594.798963,-8.30078125,-37.109375,-32.71484375,-44.43359375,0.0
1685655594.8028593,47.36328125,-39.55078125,-31.73828125,-25.87890625,0.0
1685655594.8067558,-61.03515625,-39.55078125,-36.1328125,-37.59765625,0.0
1685655594.810652,-104.4921875,-38.0859375,-33.203125,-49.31640625,0.0
1685655594.8146498,-42.48046875,-38.57421875,-29.296875,-40.52734375,0.0
1685655594.818546,52.734375,-35.64453125,-27.34375,-21.97265625,0.0
1685655594.8224423,-20.99609375,-40.52734375,-28.3203125,-28.80859375,0.0
1685655594.8263388,-116.2109375,-46.38671875,-32.2265625,-57.6171875,0.0
1685655594.830235,-67.87109375,-41.015625,-43.9453125,-52.734375,0.0
1685655594.8341312,26.85546875,-34.66796875,-38.0859375,-37.59765625,0.0
1685655594.8380277,0.9765625,-34.66796875,-38.0859375,-39.55078125,0.0
1685655594.841924,-101.07421875,-33.69140625,-46.875,-56.15234375,0.0
1685655594.8458202,-86.42578125,-32.2265625,-41.50390625,-56.15234375,0.0
1685655594.8497167,13.18359375,-33.203125,-31.25,-23.92578125,0.0
1685655594.853613,45.8984375,-29.78515625,-27.34375,-3.41796875,0.0
1685655594.8575091,-76.171875,-29.78515625,-30.2734375,-36.1328125,0.0
1685655594.8615456,-97.16796875,-41.015625,-32.71484375,-53.7109375,0.0
1685655594.8654418,-19.53125,-42.96875,-33.69140625,-47.36328125,0.0
1685655594.869338,51.7578125,-37.59765625,-29.78515625,-19.04296875,0.0
1685655594.8732345,-51.26953125,-36.62109375,-31.73828125,-29.78515625,0.0
1685655594.8771307,-101.5625,-32.2265625,-31.73828125,-50.78125,0.0
1685655594.881027,-32.71484375,-38.57421875,-26.3671875,-41.50390625,0.0
1685655594.8849235,59.08203125,-41.015625,-27.83203125,-9.27734375,0.0
1685655594.8888197,-7.32421875,-40.52734375,-26.3671875,-9.27734375,0.0
1685655594.8927162,-100.09765625,-40.52734375,-29.78515625,-26.85546875,0.0
1685655594.8966124,-53.22265625,-35.64453125,-36.62109375,-38.0859375,0.0
1685655594.9005086,40.0390625,-34.66796875,-42.48046875,-26.85546875,0.0
1685655594.904405,30.76171875,-31.25,-41.015625,-11.71875,0.0
1685655594.9083934,-75.1953125,-28.80859375,-35.64453125,-39.55078125,0.0
1685655594.9122896,-68.359375,-36.1328125,-33.69140625,-38.0859375,0.0
1685655594.916186,22.94921875,-40.0390625,-35.64453125,-18.06640625,0.0
1685655594.9200823,62.5,-34.66796875,-36.1328125,-10.7421875,0.0
1685655594.9239786,-56.15234375,-29.78515625,-38.0859375,-32.71484375,0.0
1685655594.927875,-87.890625,-35.15625,-36.62109375,-43.45703125,0.0
1685655594.9317713,-12.20703125,-40.52734375,-32.71484375,-25.390625,0.0
1685655594.9356678,70.3125,-33.69140625,-34.66796875,-6.8359375,0.0
1685655594.939564,-24.90234375,-34.1796875,-29.78515625,-23.4375,0.0
1685655594.9434605,-83.984375,-37.59765625,-30.2734375,-37.109375,0.0
1685655594.9473567,-28.3203125,-35.15625,-37.59765625,-27.34375,0.0
1685655594.951253,57.6171875,-36.62109375,-36.62109375,-2.44140625,0.0
1685655594.9552784,9.765625,-39.0625,-37.59765625,0.9765625,0.0
1685655594.9591746,-84.9609375,-38.0859375,-31.73828125,-28.3203125,0.0
1685655594.963071,-49.31640625,-30.2734375,-32.2265625,-28.80859375,0.0
1685655594.9669673,39.55078125,-33.203125,-34.1796875,-8.30078125,0.0
1685655594.9708636,26.3671875,-39.0625,-29.78515625,-3.41796875,0.0
1685655594.97476,-83.984375,-33.69140625,-33.69140625,-29.78515625,0.0
1685655594.9786563,-81.0546875,-32.2265625,-35.64453125,-38.0859375,0.0
1685655594.9825528,13.671875,-34.1796875,-33.203125,-20.5078125,0.0
1685655594.986449,51.26953125,-35.15625,-28.80859375,-11.23046875,0.0
1685655594.9903455,-75.1953125,-34.66796875,-34.1796875,-26.3671875,0.0
1685655594.9942417,-106.4453125,-33.203125,-32.71484375,-48.33984375,0.0
1685655594.9981382,-25.87890625,-27.34375,-28.3203125,-35.15625,0.0
1685655595.0021572,63.96484375,-25.390625,-32.2265625,0.48828125,0.0
1685655595.0060534,-25.87890625,-26.3671875,-28.80859375,-14.16015625,0.0
1685655595.00995,-104.98046875,-29.296875,-26.85546875,-54.19921875,0.0
1685655595.0138462,-60.05859375,-29.78515625,-35.15625,-59.5703125,0.0
1685655595.0177426,36.1328125,-25.87890625,-36.62109375,-20.99609375,0.0
1685655595.0216389,-0.48828125,-26.85546875,-28.3203125,-0.48828125,0.0
1685655595.0255353,-102.05078125,-28.80859375,-27.83203125,-30.76171875,0.0
1685655595.0294316,-70.80078125,-31.73828125,-33.203125,-47.8515625,0.0
1685655595.033328,34.66796875,-34.1796875,-34.66796875,-21.97265625,0.0
1685655595.0372243,42.96875,-28.80859375,-27.83203125,4.39453125,0.0
1685655595.0411208,-75.68359375,-28.3203125,-19.04296875,-19.04296875,0.0
1685655595.045017,-77.63671875,-31.25,-26.85546875,-37.109375,0.0
1685655595.0490308,1.46484375,-34.66796875,-32.2265625,-17.08984375,0.0
1685655595.052927,49.31640625,-39.0625,-24.90234375,6.34765625,0.0
1685655595.0568235,-62.5,-39.55078125,-32.71484375,-21.484375,0.0
1685655595.0607197,-104.4921875,-44.43359375,-43.45703125,-37.59765625,0.0
1685655595.0646162,-31.73828125,-43.45703125,-39.55078125,-25.390625,0.0
1685655595.0685124,57.12890625,-41.50390625,-37.59765625,-14.16015625,0.0
1685655595.072409,-26.85546875,-44.921875,-39.55078125,-19.53125,0.0
1685655595.0763052,-98.6328125,-44.43359375,-43.9453125,-32.71484375,0.0
1685655595.0802016,-45.8984375,-36.1328125,-38.57421875,-28.80859375,0.0
1685655595.0840979,40.0390625,-32.2265625,-34.1796875,-1.46484375,0.0
1685655595.0879943,7.32421875,-30.2734375,-39.55078125,0.0,0.0
1685655595.0918906,-97.65625,-30.2734375,-40.52734375,-39.55078125,0.0
1685655595.095899,-72.75390625,-36.1328125,-46.38671875,-57.6171875,0.0
1685655595.0997956,29.78515625,-36.62109375,-40.52734375,-33.203125,0.0
1685655595.1036918,46.38671875,-28.80859375,-30.76171875,-8.7890625,0.0
1685655595.1075883,-83.0078125,-35.15625,-39.55078125,-41.015625,0.0
1685655595.1114848,-98.6328125,-36.62109375,-46.38671875,-55.6640625,0.0
1685655595.115381,-12.6953125,-35.64453125,-46.875,-34.1796875,0.0
1685655595.1192775,51.26953125,-39.55078125,-43.9453125,-16.11328125,0.0
1685655595.1231737,-52.24609375,-41.9921875,-35.15625,-30.76171875,0.0
1685655595.1270702,-95.703125,-37.59765625,-32.2265625,-35.15625,0.0
1685655595.1309667,-27.34375,-30.2734375,-27.34375,-15.625,0.0
1685655595.134863,65.91796875,-25.87890625,-19.04296875,-3.41796875,0.0
1685655595.1387594,-2.9296875,-33.203125,-20.99609375,-21.484375,0.0
1685655595.1427634,-99.12109375,-40.0390625,-28.3203125,-44.921875,0.0
1685655595.1466599,-61.03515625,-35.64453125,-32.2265625,-34.66796875,0.0
1685655595.150556,43.45703125,-27.83203125,-26.85546875,-7.32421875,0.0
1685655595.1544526,13.671875,-26.85546875,-29.78515625,-5.859375,0.0
1685655595.158349,-98.6328125,-30.76171875,-41.015625,-46.38671875,0.0
1685655595.1622453,-79.58984375,-31.73828125,-41.9921875,-52.734375,0.0
1685655595.1661417,14.6484375,-28.80859375,-42.48046875,-24.90234375,0.0
1685655595.170038,43.9453125,-27.83203125,-36.1328125,4.39453125,0.0
1685655595.1739345,-84.9609375,-25.87890625,-24.90234375,-23.4375,0.0
1685655595.177831,-105.46875,-28.3203125,-28.3203125,-57.6171875,0.0
1685655595.1817272,-20.5078125,-36.1328125,-37.109375,-43.45703125,0.0
1685655595.1856236,57.6171875,-31.25,-34.1796875,-20.01953125,0.0
1685655595.1896212,-52.734375,-29.78515625,-34.66796875,-36.62109375,0.0
1685655595.1935177,-117.1875,-36.1328125,-32.71484375,-52.734375,0.0
1685655595.197414,-46.38671875,-36.1328125,-29.78515625,-46.38671875,0.0
1685655595.2013104,53.22265625,-31.73828125,-25.390625,-9.765625,0.0
1685655595.2052069,-14.16015625,-29.296875,-29.78515625,-12.20703125,0.0
1685655595.209103,-105.95703125,-36.62109375,-41.9921875,-51.26953125,0.0
1685655595.2129996,-63.96484375,-44.43359375,-37.59765625,-54.6875,0.0
1685655595.216896,35.64453125,-34.66796875,-31.25,-9.27734375,0.0
1685655595.2207923,20.99609375,-26.85546875,-32.71484375,3.41796875,0.0
1685655595.2246888,-100.09765625,-35.15625,-34.66796875,-29.78515625,0.0
1685655595.2285852,-91.796875,-39.0625,-35.64453125,-32.71484375,0.0
1685655595.2324815,-2.44140625,-37.109375,-24.90234375,-23.4375,0.0
1685655595.2365181,37.109375,-29.296875,-27.83203125,-16.6015625,0.0
1685655595.2404146,-77.1484375,-23.4375,-34.66796875,-38.0859375,0.0
1685655595.244311,-101.07421875,-34.1796875,-28.80859375,-58.59375,0.0
1685655595.2482073,-20.99609375,-37.59765625,-26.85546875,-30.76171875,0.0
1685655595.2521038,59.08203125,-34.66796875,-25.87890625,-5.859375,0.0
1685655595.2560003,-42.96875,-34.1796875,-31.25,-24.90234375,0.0
1685655595.2598965,-111.81640625,-32.2265625,-39.0625,-52.24609375,0.0
1685655595.263793,-55.17578125,-36.62109375,-36.62109375,-55.6640625,0.0
1685655595.2676895,40.0390625,-30.2734375,-36.1328125,-15.625,0.0
1685655595.2715857,-8.30078125,-27.83203125,-39.55078125,-12.6953125,0.0
1685655595.2754822,-100.5859375,-31.73828125,-31.73828125,-55.17578125,0.0
1685655595.2793787,-55.6640625,-27.34375,-25.390625,-55.6640625,0.0
1685655595.283365,43.9453125,-23.92578125,-25.87890625,-7.32421875,0.0
1685655595.2872615,28.80859375,-28.3203125,-35.64453125,-8.7890625,0.0
1685655595.2911577,-91.796875,-32.71484375,-41.015625,-41.015625,0.0
1685655595.2950542,-83.49609375,-28.80859375,-31.25,-37.59765625,0.0
1685655595.2989507,7.8125,-20.99609375,-22.94921875,-21.97265625,0.0
1685655595.302847,49.8046875,-25.87890625,-27.34375,-2.44140625,0.0
1685655595.3067434,-65.4296875,-26.85546875,-31.73828125,-16.6015625,0.0
1685655595.3106399,-99.12109375,-28.3203125,-29.78515625,-28.80859375,0.0
1685655595.3145363,-23.92578125,-35.15625,-29.296875,-26.3671875,0.0
1685655595.3184326,62.5,-33.69140625,-33.203125,-5.37109375,0.0
1685655595.322329,-33.69140625,-34.1796875,-29.296875,-20.99609375,0.0
1685655595.3262255,-103.515625,-30.2734375,-27.83203125,-47.36328125,0.0
1685655595.3302479,-42.48046875,-28.80859375,-34.1796875,-32.71484375,0.0
1685655595.3341444,52.24609375,-35.15625,-30.76171875,-7.32421875,0.0
1685655595.3380408,6.8359375,-30.76171875,-19.53125,-1.46484375,0.0
1685655595.3419373,-103.515625,-28.80859375,-25.87890625,-46.875,0.0
1685655595.3458335,-73.2421875,-24.90234375,-40.52734375,-59.08203125,0.0
1685655595.34973,24.4140625,-31.25,-39.55078125,-14.6484375,0.0
1685655595.3536265,32.2265625,-39.0625,-31.25,-2.44140625,0.0
1685655595.357523,-85.9375,-37.59765625,-25.87890625,-34.1796875,0.0
1685655595.3614192,-91.796875,-36.62109375,-28.3203125,-40.52734375,0.0
1685655595.3653157,-3.90625,-26.85546875,-29.78515625,-21.97265625,0.0
1685655595.3692122,56.640625,-28.3203125,-22.4609375,6.34765625,0.0
1685655595.3731086,-55.17578125,-36.62109375,-27.34375,-20.99609375,0.0
1685655595.3771274,-98.6328125,-38.0859375,-39.0625,-54.19921875,0.0
1685655595.381024,-33.203125,-37.109375,-36.62109375,-45.8984375,0.0
1685655595.3849204,56.15234375,-40.52734375,-37.109375,-3.90625,0.0
1685655595.3888168,-12.6953125,-34.1796875,-35.64453125,-5.37109375,0.0
1685655595.392713,-84.9609375,-28.3203125,-27.34375,-47.8515625,0.0
1685655595.3966095,-40.0390625,-38.0859375,-30.2734375,-50.29296875,0.0
1685655595.400506,55.6640625,-38.57421875,-22.4609375,-10.25390625,0.0
1685655595.4044025,27.34375,-36.1328125,-18.06640625,-3.90625,0.0
1685655595.408299,-75.1953125,-39.55078125,-29.78515625,-35.64453125,0.0
1685655595.4121952,-48.33984375,-38.57421875,-31.25,-28.80859375,0.0
1685655595.4160917,39.55078125,-36.1328125,-25.390625,-13.671875,0.0
1685655595.4199882,43.45703125,-34.1796875,-32.2265625,1.46484375,0.0
1685655595.424001,-75.68359375,-41.9921875,-43.9453125,-14.16015625,0.0
1685655595.4278975,-91.30859375,-41.9921875,-37.109375,-40.52734375,0.0
1685655595.431794,-15.625,-32.71484375,-20.5078125,-21.484375,0.0
1685655595.4356904,49.8046875,-27.83203125,-32.71484375,2.44140625,0.0
1685655595.4395869,-62.98828125,-34.1796875,-46.875,-38.57421875,0.0
1685655595.4434834,-108.88671875,-38.0859375,-39.0625,-56.640625,0.0
1685655595.4473798,-31.25,-29.296875,-32.2265625,-25.87890625,0.0
1685655595.451276,55.17578125,-26.3671875,-36.1328125,-3.90625,0.0
1685655595.4551725,-29.296875,-31.25,-38.57421875,-17.08984375,0.0
1685655595.459069,-115.72265625,-40.52734375,-36.1328125,-50.29296875,0.0
1685655595.4629655,-65.4296875,-41.9921875,-44.921875,-50.78125,0.0
1685655595.466862,32.71484375,-32.71484375,-45.8984375,-17.08984375,0.0
1685655595.4708703,7.8125,-34.1796875,-39.55078125,-11.23046875,0.0
1685655595.4747665,-107.91015625,-40.0390625,-37.59765625,-53.22265625,0.0
1685655595.478663,-90.33203125,-34.1796875,-40.52734375,-54.6875,0.0
1685655595.4825594,9.765625,-33.69140625,-34.66796875,-13.18359375,0.0
1685655595.486456,33.69140625,-32.2265625,-30.2734375,-13.671875,0.0
1685655595.4903524,-84.9609375,-35.15625,-48.828125,-50.29296875,0.0
1685655595.4942489,-96.19140625,-43.45703125,-50.78125,-49.8046875,0.0
1685655595.4981453,-21.484375,-42.96875,-44.921875,-25.87890625,0.0
1685655595.5020418,44.43359375,-41.9921875,-46.875,-12.6953125,0.0
1685655595.505938,-56.640625,-42.96875,-48.828125,-40.0390625,0.0
1685655595.5098345,-105.46875,-38.0859375,-43.9453125,-71.77734375,0.0
1685655595.513731,-32.2265625,-35.64453125,-37.59765625,-50.29296875,0.0
1685655595.5177329,59.08203125,-27.83203125,-32.71484375,-4.39453125,0.0
1685655595.5216293,-6.8359375,-28.3203125,-28.3203125,-20.99609375,0.0
1685655595.5255258,-91.30859375,-37.59765625,-33.203125,-50.29296875,0.0
1685655595.5294223,-52.24609375,-38.57421875,-38.0859375,-43.45703125,0.0
1685655595.5333188,42.96875,-35.15625,-32.71484375,-29.78515625,0.0
1685655595.5372152,26.85546875,-33.69140625,-34.1796875,-23.92578125,0.0
1685655595.5411117,-85.44921875,-34.66796875,-45.41015625,-32.2265625,0.0
1685655595.5450082,-64.453125,-30.76171875,-36.1328125,-26.3671875,0.0
1685655595.5489047,24.90234375,-26.85546875,-30.76171875,-21.97265625,0.0
1685655595.5528011,53.7109375,-30.76171875,-39.0625,-12.6953125,0.0
1685655595.5566974,-66.40625,-33.69140625,-41.015625,-26.85546875,0.0
1685655595.5605938,-90.33203125,-36.62109375,-39.55078125,-42.96875,0.0
1685655595.5645916,-10.7421875,-34.1796875,-36.1328125,-26.85546875,0.0
1685655595.5684881,62.5,-30.76171875,-32.71484375,5.37109375,0.0
1685655595.5723846,-34.66796875,-37.109375,-37.109375,-12.20703125,0.0
1685655595.5762808,-96.19140625,-42.48046875,-36.1328125,-51.7578125,0.0
1685655595.5801773,-27.34375,-39.55078125,-31.25,-44.921875,0.0
1685655595.5840738,60.05859375,-37.59765625,-32.2265625,-15.13671875,0.0
1685655595.5879703,-7.8125,-41.50390625,-41.9921875,-19.04296875,0.0
1685655595.5918667,-103.02734375,-46.38671875,-43.45703125,-44.43359375,0.0
1685655595.5957632,-66.40625,-42.96875,-29.296875,-39.55078125,0.0
1685655595.5996597,26.3671875,-38.57421875,-32.2265625,-15.13671875,0.0
1685655595.6035562,23.92578125,-37.59765625,-39.55078125,-9.27734375,0.0
1685655595.6074526,-87.890625,-37.109375,-36.1328125,-27.34375,0.0
1685655595.611487,-81.54296875,-31.25,-38.0859375,-40.52734375,0.0
1685655595.6153834,12.20703125,-26.3671875,-46.38671875,-27.83203125,0.0
1685655595.6192799,42.96875,-31.25,-45.41015625,-22.4609375,0.0
1685655595.6231763,-87.40234375,-31.25,-41.9921875,-47.8515625,0.0
1685655595.6270728,-100.09765625,-26.3671875,-43.45703125,-56.640625,0.0
1685655595.6309693,-15.625,-28.80859375,-41.9921875,-46.38671875,0.0
1685655595.6348658,52.24609375,-34.66796875,-40.0390625,-20.99609375,0.0
1685655595.6387622,-43.9453125,-32.71484375,-34.66796875,-32.71484375,0.0
1685655595.6426585,-104.00390625,-23.92578125,-41.015625,-57.6171875,0.0
1685655595.646555,-50.29296875,-26.3671875,-47.8515625,-45.41015625,0.0
1685655595.6504514,36.1328125,-30.76171875,-41.50390625,-9.27734375,0.0
1685655595.654348,-7.8125,-29.78515625,-40.52734375,-21.97265625,0.0
1685655595.6583338,-107.421875,-28.80859375,-45.8984375,-54.19921875,0.0
1685655595.6622303,-79.58984375,-25.390625,-42.96875,-56.640625,0.0
1685655595.6661267,20.01953125,-27.34375,-31.25,-27.83203125,0.0
1685655595.6700232,31.73828125,-26.85546875,-32.2265625,-7.32421875,0.0
1685655595.6739197,-84.9609375,-25.390625,-35.64453125,-34.66796875,0.0
1685655595.6778162,-95.703125,-34.1796875,-41.9921875,-54.6875,0.0
1685655595.6817126,-14.16015625,-31.73828125,-41.9921875,-33.203125,0.0
1685655595.685609,38.57421875,-34.1796875,-33.203125,-9.765625,0.0
1685655595.6895056,-77.63671875,-40.52734375,-35.15625,-36.62109375,0.0
1685655595.693402,-116.69921875,-37.59765625,-42.96875,-60.05859375,0.0
1685655595.6972985,-41.015625,-35.64453125,-37.109375,-45.8984375,0.0
1685655595.701195,54.19921875,-23.92578125,-32.2265625,-11.71875,0.0
1685655595.7052164,-28.80859375,-27.34375,-38.0859375,-13.18359375,0.0
1685655595.709113,-108.88671875,-43.9453125,-41.9921875,-46.875,0.0
1685655595.7130094,-62.98828125,-37.109375,-44.43359375,-51.7578125,0.0
1685655595.7169058,37.109375,-28.3203125,-39.55078125,-16.11328125,0.0
1685655595.7208023,11.23046875,-39.0625,-36.1328125,-19.04296875,0.0
1685655595.7246988,-103.515625,-46.38671875,-38.0859375,-50.78125,0.0
1685655595.7285953,-82.03125,-41.9921875,-41.015625,-49.8046875,0.0
1685655595.7324917,17.08984375,-39.55078125,-40.52734375,-26.85546875,0.0
1685655595.7363884,28.80859375,-38.57421875,-39.0625,-11.71875,0.0
1685655595.740285,-92.7734375,-35.15625,-46.38671875,-39.0625,0.0
1685655595.7441814,-104.4921875,-33.69140625,-39.55078125,-44.921875,0.0
1685655595.7480779,-20.01953125,-38.57421875,-29.296875,-27.83203125,0.0
1685655595.7521005,46.875,-40.52734375,-35.64453125,-10.25390625,0.0
1685655595.755997,-55.17578125,-40.52734375,-37.59765625,-25.87890625,0.0
1685655595.7598934,-102.05078125,-40.0390625,-38.0859375,-47.36328125,0.0
1685655595.76379,-34.1796875,-37.59765625,-31.73828125,-31.25,0.0
1685655595.7676864,62.01171875,-31.73828125,-32.71484375,1.46484375,0.0
1685655595.7715828,-14.16015625,-30.76171875,-39.55078125,-2.9296875,0.0
1685655595.7754793,-99.12109375,-37.59765625,-45.41015625,-38.57421875,0.0
1685655595.7793758,-42.96875,-34.66796875,-46.875,-30.76171875,0.0
1685655595.7832723,54.6875,-32.71484375,-39.55078125,4.8828125,0.0
1685655595.787169,27.34375,-33.203125,-41.50390625,3.90625,0.0
1685655595.7910655,-92.7734375,-36.1328125,-43.45703125,-41.50390625,0.0
1685655595.794962,-71.2890625,-37.59765625,-37.59765625,-46.875,0.0
1685655595.7989724,34.1796875,-30.76171875,-28.80859375,-8.30078125,0.0
1685655595.802869,45.8984375,-30.2734375,-30.76171875,-1.953125,0.0
1685655595.8067656,-78.61328125,-33.69140625,-40.52734375,-31.73828125,0.0
1685655595.810662,-94.23828125,-34.66796875,-34.66796875,-52.734375,0.0
1685655595.8145585,-7.32421875,-35.64453125,-30.2734375,-41.50390625,0.0
1685655595.818455,58.10546875,-42.96875,-34.1796875,-13.671875,0.0
1685655595.8223515,-51.7578125,-43.45703125,-39.55078125,-36.62109375,0.0
1685655595.8262482,-94.7265625,-34.1796875,-40.52734375,-43.45703125,0.0
1685655595.8301446,-29.78515625,-37.59765625,-37.109375,-32.2265625,0.0
1685655595.834041,55.6640625,-35.64453125,-35.64453125,-20.01953125,0.0
1685655595.8379376,-4.8828125,-34.66796875,-34.66796875,-22.4609375,0.0
1685655595.841834,-94.23828125,-37.59765625,-38.0859375,-41.9921875,0.0
1685655595.8458393,-62.5,-31.73828125,-39.0625,-45.8984375,0.0
1685655595.8497357,39.0625,-29.296875,-33.69140625,-13.18359375,0.0
1685655595.8536322,31.73828125,-31.25,-29.296875,3.41796875,0.0
1685655595.8575287,-83.984375,-33.69140625,-33.69140625,-41.015625,0.0
1685655595.8614252,-71.2890625,-32.71484375,-31.25,-45.41015625,0.0
1685655595.8653219,21.484375,-32.2265625,-31.25,-6.34765625,0.0
1685655595.8692183,47.36328125,-40.0390625,-26.3671875,10.7421875,0.0
1685655595.8731148,-62.5,-33.69140625,-29.296875,-24.4140625,0.0
1685655595.8770113,-83.984375,-28.3203125,-38.57421875,-53.7109375,0.0
1685655595.8809078,-11.71875,-29.296875,-33.69140625,-39.55078125,0.0
1685655595.8848045,58.10546875,-30.76171875,-30.76171875,-10.25390625,0.0
1685655595.888701,-31.73828125,-26.85546875,-31.73828125,-28.3203125,0.0
1685655595.892701,-87.40234375,-24.4140625,-27.34375,-48.33984375,0.0
1685655595.8965974,-37.59765625,-27.83203125,-24.90234375,-39.55078125,0.0
1685655595.900494,53.7109375,-31.73828125,-36.62109375,-14.16015625,0.0
1685655595.9043906,-4.39453125,-37.59765625,-42.48046875,-24.4140625,0.0
1685655595.908287,-105.46875,-37.59765625,-41.50390625,-56.15234375,0.0
1685655595.9121835,-73.2421875,-38.57421875,-40.52734375,-62.98828125,0.0
1685655595.9160802,33.203125,-35.64453125,-40.0390625,-21.484375,0.0
1685655595.9199767,33.69140625,-32.71484375,-36.1328125,0.48828125,0.0
1685655595.9238732,-92.28515625,-34.66796875,-33.69140625,-41.015625,0.0
1685655595.9277697,-92.28515625,-34.66796875,-30.2734375,-46.38671875,0.0
1685655595.9316661,11.71875,-25.390625,-34.1796875,-23.92578125,0.0
1685655595.9355628,53.7109375,-29.296875,-39.0625,-8.7890625,0.0
1685655595.9395573,-81.0546875,-46.875,-36.62109375,-41.50390625,0.0
1685655595.9434538,-111.81640625,-46.875,-36.1328125,-63.4765625,0.0
1685655595.9473505,-30.76171875,-44.43359375,-35.64453125,-35.15625,0.0
1685655595.951247,48.828125,-43.45703125,-39.55078125,-7.32421875,0.0
1685655595.9551435,-43.45703125,-43.45703125,-41.9921875,-17.08984375,0.0
1685655595.95904,-107.91015625,-44.43359375,-41.50390625,-38.0859375,0.0
1685655595.9629366,-57.12890625,-35.15625,-40.0390625,-42.96875,0.0
1685655595.966833,36.1328125,-36.1328125,-35.15625,-12.20703125,0.0
1685655595.9707296,-2.9296875,-41.9921875,-35.64453125,-12.6953125,0.0
1685655595.974626,-104.00390625,-41.9921875,-35.15625,-47.36328125,0.0
1685655595.9785228,-72.265625,-37.59765625,-36.62109375,-44.43359375,0.0
1685655595.9824193,24.4140625,-34.1796875,-31.73828125,-7.8125,0.0
1685655595.9864511,29.296875,-34.66796875,-24.4140625,12.20703125,0.0
1685655595.9903476,-83.984375,-36.62109375,-32.2265625,-27.83203125,0.0
1685655595.994244,-89.84375,-43.45703125,-37.109375,-46.875,0.0
1685655595.9981408,1.953125,-35.15625,-35.15625,-31.25,0.0
1685655596.0020373,60.05859375,-26.3671875,-30.76171875,-5.37109375,0.0
1685655596.0059338,-63.4765625,-30.2734375,-30.76171875,-20.5078125,0.0
1685655596.0098302,-106.4453125,-40.0390625,-37.109375,-49.8046875,0.0
1685655596.013727,-25.390625,-33.203125,-33.203125,-40.52734375,0.0
1685655596.0176234,67.3828125,-24.90234375,-29.296875,4.39453125,0.0
1685655596.02152,-21.97265625,-25.87890625,-40.0390625,-1.46484375,0.0
1685655596.0254166,-102.05078125,-24.4140625,-33.203125,-44.43359375,0.0
1685655596.029313,-47.8515625,-26.3671875,-23.92578125,-36.1328125,0.0
1685655596.0333405,44.43359375,-25.87890625,-36.62109375,4.8828125,0.0
1685655596.037237,1.46484375,-26.3671875,-42.48046875,-2.44140625,0.0
1685655596.0411336,-94.23828125,-24.4140625,-38.57421875,-37.109375,0.0
1685655596.04503,-73.73046875,-25.390625,-28.80859375,-33.69140625,0.0
1685655596.0489266,20.5078125,-29.78515625,-25.390625,-2.9296875,0.0
1685655596.0528233,38.57421875,-31.73828125,-24.90234375,7.32421875,0.0
1685655596.0567198,-82.51953125,-33.203125,-30.76171875,-24.90234375,0.0
1685655596.0606163,-83.984375,-32.2265625,-27.83203125,-41.9921875,0.0
1685655596.064513,3.90625,-27.34375,-23.4375,-30.2734375,0.0
1685655596.0684094,61.5234375,-30.2734375,-30.2734375,2.9296875,0.0
1685655596.072306,-50.78125,-29.296875,-28.3203125,-12.6953125,0.0
1685655596.0762026,-92.7734375,-28.3203125,-33.203125,-45.8984375,0.0
1685655596.0802233,-23.4375,-28.80859375,-37.59765625,-37.59765625,0.0
1685655596.08412,61.5234375,-29.296875,-28.80859375,-1.953125,0.0
1685655596.0880165,-10.7421875,-35.64453125,-30.2734375,-8.30078125,0.0
1685655596.091913,-92.28515625,-38.0859375,-35.64453125,-36.62109375,0.0
1685655596.0958097,-47.36328125,-41.015625,-41.015625,-38.0859375,0.0
1685655596.0997062,41.50390625,-44.43359375,-40.0390625,-12.6953125,0.0
1685655596.103603,9.765625,-40.0390625,-35.15625,-9.765625,0.0
1685655596.1074994,-104.00390625,-33.69140625,-35.64453125,-55.6640625,0.0
1685655596.1113958,-84.9609375,-32.2265625,-31.25,-50.78125,0.0
1685655596.1152925,20.5078125,-29.296875,-29.78515625,-15.13671875,0.0
1685655596.119189,41.50390625,-21.484375,-25.87890625,-12.20703125,0.0
1685655596.1230855,-82.03125,-28.3203125,-29.296875,-38.57421875,0.0
1685655596.127101,-90.33203125,-27.83203125,-36.62109375,-36.62109375,0.0
1685655596.1309977,-1.46484375,-17.08984375,-34.66796875,-18.5546875,0.0
1685655596.1348941,61.03515625,-21.484375,-31.73828125,0.0,0.0
1685655596.1387908,-48.33984375,-27.83203125,-29.78515625,-25.390625,0.0
1685655596.1426873,-95.21484375,-22.4609375,-30.2734375,-52.24609375,0.0
1685655596.1465838,-22.4609375,-21.97265625,-32.71484375,-41.9921875,0.0
1685655596.1504805,64.453125,-27.83203125,-27.83203125,-11.71875,0.0
1685655596.154377,-8.30078125,-33.203125,-29.78515625,-31.73828125,0.0
1685655596.1582737,-97.16796875,-34.66796875,-37.109375,-63.4765625,0.0
1685655596.1621702,-60.05859375,-29.296875,-39.55078125,-42.96875,0.0
1685655596.166067,32.71484375,-26.3671875,-32.71484375,-11.23046875,0.0
1685655596.1699634,14.6484375,-33.203125,-31.25,-3.90625,0.0
1685655596.1739733,-96.6796875,-41.50390625,-35.15625,-29.296875,0.0
1685655596.1778698,-82.51953125,-36.62109375,-33.203125,-43.45703125,0.0
1685655596.1817665,7.32421875,-30.76171875,-32.2265625,-32.2265625,0.0
1685655596.185663,40.52734375,-31.73828125,-32.2265625,-7.8125,0.0
1685655596.1895597,-72.75390625,-33.203125,-38.0859375,-26.85546875,0.0
1685655596.1934562,-103.02734375,-31.73828125,-44.43359375,-62.98828125,0.0
1685655596.197353,-28.80859375,-32.71484375,-35.15625,-51.26953125,0.0
1685655596.2012494,47.8515625,-42.48046875,-29.296875,-14.16015625,0.0
1685655596.205146,-46.875,-43.45703125,-36.62109375,-24.4140625,0.0
1685655596.2090425,-93.75,-30.76171875,-38.0859375,-45.8984375,0.0
1685655596.212939,-37.109375,-34.66796875,-39.0625,-43.9453125,0.0
1685655596.2168357,44.43359375,-43.45703125,-35.15625,-19.04296875,0.0
1685655596.2208438,-11.71875,-41.50390625,-31.25,-14.16015625,0.0
1685655596.2247403,-94.23828125,-30.76171875,-32.2265625,-47.36328125,0.0
1685655596.228637,-56.640625,-33.203125,-35.64453125,-55.17578125,0.0
1685655596.2325335,38.57421875,-37.59765625,-36.1328125,-16.6015625,0.0
1685655596.2364302,25.390625,-36.62109375,-43.45703125,-1.953125,0.0
1685655596.2403266,-92.7734375,-41.015625,-44.921875,-41.9921875,0.0
1685655596.2442234,-85.44921875,-45.8984375,-33.203125,-56.15234375,0.0
1685655596.2481198,7.8125,-43.9453125,-29.296875,-20.01953125,0.0
1685655596.2520165,55.6640625,-40.52734375,-31.73828125,24.90234375,0.0
1685655596.255913,-61.5234375,-38.57421875,-34.1796875,-11.23046875,0.0
1685655596.2598097,-87.890625,-34.1796875,-34.1796875,-48.828125,0.0
1685655596.2637062,-17.578125,-32.2265625,-35.15625,-38.0859375,0.0
1685655596.2677052,56.15234375,-31.73828125,-32.2265625,-6.34765625,0.0
1685655596.2716017,-29.78515625,-31.73828125,-33.69140625,-20.99609375,0.0
1685655596.2754984,-101.5625,-36.62109375,-36.62109375,-50.29296875,0.0
1685655596.2793949,-46.875,-38.0859375,-40.52734375,-37.109375,0.0
1685655596.2832916,44.921875,-36.1328125,-45.41015625,2.44140625,0.0
1685655596.287188,-0.48828125,-34.1796875,-36.62109375,10.7421875,0.0
1685655596.2910848,-100.5859375,-35.15625,-29.296875,-37.59765625,0.0
1685655596.2949812,-80.078125,-39.55078125,-33.69140625,-51.26953125,0.0
1685655596.298878,20.5078125,-39.55078125,-34.66796875,-15.13671875,0.0
1685655596.3027744,33.203125,-33.69140625,-33.203125,-3.41796875,0.0
1685655596.3066711,-77.1484375,-30.2734375,-36.1328125,-30.2734375,0.0
1685655596.3105679,-76.66015625,-26.85546875,-42.48046875,-29.296875,0.0
1685655596.3145614,6.34765625,-24.90234375,-36.62109375,-19.04296875,0.0
1685655596.318458,55.6640625,-25.390625,-26.3671875,0.0,0.0
1685655596.3223548,-61.03515625,-33.203125,-32.71484375,-18.06640625,0.0
1685655596.3262513,-99.609375,-33.203125,-32.2265625,-40.52734375,0.0
1685655596.330148,-27.83203125,-33.69140625,-23.4375,-39.0625,0.0
1685655596.3340445,57.6171875,-32.2265625,-28.3203125,-14.6484375,0.0
1685655596.3379412,-29.296875,-30.2734375,-34.1796875,-24.90234375,0.0
1685655596.3418376,-109.86328125,-36.1328125,-36.1328125,-57.12890625,0.0
1685655596.3457344,-49.8046875,-33.203125,-39.0625,-40.52734375,0.0
1685655596.349631,51.26953125,-24.4140625,-31.73828125,-13.18359375,0.0
1685655596.3535275,15.13671875,-23.4375,-33.203125,-12.20703125,0.0
1685655596.3574243,-86.9140625,-27.83203125,-35.15625,-38.0859375,0.0
1685655596.3614547,-57.12890625,-27.83203125,-33.69140625,-53.22265625,0.0
1685655596.3653512,38.0859375,-17.578125,-28.80859375,-23.4375,0.0
1685655596.369248,35.15625,-18.5546875,-24.90234375,-19.04296875,0.0
1685655596.3731444,-86.42578125,-22.94921875,-30.2734375,-44.43359375,0.0
1685655596.377041,-98.14453125,-24.4140625,-33.203125,-51.7578125,0.0
1685655596.3809378,-16.6015625,-29.78515625,-37.59765625,-52.734375,0.0
1685655596.3848343,46.38671875,-25.390625,-33.69140625,-22.94921875,0.0
1685655596.388731,-57.12890625,-25.87890625,-26.85546875,-38.0859375,0.0
1685655596.3926277,-95.21484375,-31.73828125,-22.94921875,-62.01171875,0.0
1685655596.3965242,-28.3203125,-32.71484375,-21.97265625,-37.109375,0.0
1685655596.400421,46.38671875,-28.80859375,-25.87890625,-8.7890625,0.0
1685655596.4043174,-25.87890625,-30.76171875,-33.69140625,-18.06640625,0.0
1685655596.4083042,-98.6328125,-41.9921875,-37.109375,-48.33984375,0.0
1685655596.4122007,-59.08203125,-48.33984375,-41.9921875,-50.29296875,0.0
1685655596.4160974,33.203125,-43.9453125,-45.41015625,-29.78515625,0.0
1685655596.419994,1.46484375,-42.48046875,-38.57421875,-23.92578125,0.0
1685655596.4238906,-100.5859375,-43.45703125,-34.66796875,-46.38671875,0.0
1685655596.4277873,-70.80078125,-44.43359375,-39.0625,-54.19921875,0.0
1685655596.4316838,25.87890625,-41.50390625,-39.55078125,-11.71875,0.0
1685655596.4355805,36.62109375,-34.66796875,-28.80859375,18.5546875,0.0
1685655596.4394772,-87.890625,-31.25,-22.4609375,-23.4375,0.0
1685655596.4433737,-94.23828125,-35.64453125,-28.80859375,-56.640625,0.0
1685655596.4472704,-8.7890625,-35.64453125,-36.62109375,-35.15625,0.0
1685655596.451167,50.29296875,-33.69140625,-31.25,10.7421875,0.0
1685655596.455187,-63.4765625,-40.0390625,-31.73828125,-17.578125,0.0
1685655596.4590836,-107.91015625,-38.57421875,-34.1796875,-51.26953125,0.0
1685655596.4629803,-35.15625,-27.83203125,-28.80859375,-42.48046875,0.0
1685655596.466877,57.12890625,-32.2265625,-33.203125,-15.625,0.0
1685655596.4707735,-14.6484375,-40.52734375,-40.52734375,-26.3671875,0.0
1685655596.4746702,-99.12109375,-37.59765625,-40.52734375,-47.36328125,0.0
1685655596.478567,-61.5234375,-33.69140625,-40.0390625,-43.45703125,0.0
1685655596.4824634,36.62109375,-37.109375,-29.296875,-26.85546875,0.0
1685655596.48636,27.83203125,-38.0859375,-23.92578125,-10.25390625,0.0
1685655596.4902568,-82.51953125,-36.1328125,-33.203125,-20.5078125,0.0
1685655596.4941533,-74.70703125,-36.1328125,-36.1328125,-37.109375,0.0
1685655596.49805,26.3671875,-32.2265625,-27.34375,-17.578125,0.0
1685655596.5020695,55.17578125,-30.76171875,-23.92578125,4.8828125,0.0
1685655596.5059662,-74.70703125,-39.55078125,-31.73828125,-25.390625,0.0
1685655596.509863,-93.26171875,-40.0390625,-33.203125,-44.921875,0.0
1685655596.5137596,-12.6953125,-33.69140625,-30.76171875,-14.16015625,0.0
1685655596.517656,55.6640625,-31.25,-32.71484375,23.92578125,0.0
1685655596.5215528,-63.96484375,-39.0625,-41.50390625,-19.53125,0.0
1685655596.5254495,-111.81640625,-42.48046875,-45.8984375,-57.12890625,0.0
1685655596.529346,-38.0859375,-36.1328125,-40.0390625,-41.015625,0.0
1685655596.5332427,41.9921875,-36.62109375,-35.15625,-1.953125,0.0
1685655596.5371394,-16.6015625,-34.66796875,-33.203125,-8.30078125,0.0
1685655596.5410361,-100.09765625,-31.73828125,-24.4140625,-56.640625,0.0
1685655596.5449326,-58.59375,-36.1328125,-30.2734375,-56.15234375,0.0
1685655596.5489433,36.1328125,-36.62109375,-38.57421875,-20.5078125,0.0
1685655596.5528398,19.04296875,-34.66796875,-31.73828125,-14.16015625,0.0
1685655596.5567365,-91.30859375,-37.109375,-26.85546875,-37.59765625,0.0
1685655596.5606332,-80.078125,-39.55078125,-32.71484375,-32.2265625,0.0
1685655596.56453,11.71875,-46.38671875,-39.0625,-12.6953125,0.0
1685655596.5684264,45.41015625,-40.52734375,-32.2265625,-13.18359375,0.0
1685655596.572323,-72.75390625,-34.66796875,-31.73828125,-48.828125,0.0
1685655596.5762198,-97.16796875,-40.0390625,-32.71484375,-68.84765625,0.0
1685655596.5801165,-23.92578125,-39.0625,-35.64453125,-43.9453125,0.0
1685655596.5840132,49.31640625,-38.0859375,-26.85546875,-0.48828125,0.0
1685655596.5879097,-43.45703125,-36.62109375,-26.85546875,-17.578125,0.0
1685655596.5918064,-100.09765625,-33.69140625,-38.57421875,-48.33984375,0.0
1685655596.5958111,-53.22265625,-39.0625,-38.57421875,-60.05859375,0.0
1685655596.5997078,28.3203125,-39.0625,-44.43359375,-23.92578125,0.0
1685655596.6036046,-16.11328125,-37.59765625,-42.48046875,-7.32421875,0.0
1685655596.607501,-104.4921875,-41.50390625,-39.0625,-41.015625,0.0
1685655596.6113977,-68.359375,-43.45703125,-40.0390625,-43.45703125,0.0
1685655596.6152945,32.71484375,-43.45703125,-37.59765625,-9.27734375,0.0
1685655596.6191912,27.83203125,-45.8984375,-39.0625,-9.27734375,0.0
1685655596.623088,-93.26171875,-43.45703125,-40.52734375,-36.62109375,0.0
1685655596.6269844,-94.23828125,-41.9921875,-41.50390625,-42.48046875,0.0
1685655596.630881,-0.9765625,-43.9453125,-34.66796875,-35.64453125,0.0
1685655596.6347778,49.31640625,-38.57421875,-28.3203125,-10.7421875,0.0
1685655596.6386745,-67.87109375,-35.15625,-27.34375,-38.0859375,0.0
1685655596.6426735,-95.703125,-36.62109375,-32.2265625,-50.78125,0.0
1685655596.6465702,-24.4140625,-36.1328125,-38.0859375,-38.0859375,0.0
1685655596.650467,56.15234375,-41.50390625,-42.96875,-25.87890625,0.0
1685655596.6543636,-38.57421875,-41.50390625,-42.96875,-24.4140625,0.0
1685655596.65826,-109.375,-36.1328125,-40.0390625,-30.2734375,0.0
1685655596.6621568,-48.33984375,-35.64453125,-45.8984375,-38.0859375,0.0
1685655596.6660535,46.875,-40.0390625,-44.43359375,-15.625,0.0
1685655596.6699502,7.8125,-42.48046875,-38.57421875,-2.44140625,0.0
1685655596.673847,-90.33203125,-37.109375,-37.109375,-34.1796875,0.0
1685655596.6777437,-60.546875,-31.25,-42.48046875,-37.109375,0.0
1685655596.6816401,36.1328125,-30.2734375,-42.96875,-8.30078125,0.0
1685655596.6855369,46.38671875,-29.296875,-39.55078125,0.9765625,0.0
1685655596.68953,-69.82421875,-26.3671875,-43.9453125,-28.80859375,0.0
1685655596.6934266,-77.63671875,-26.85546875,-49.31640625,-41.015625,0.0
1685655596.6973233,11.23046875,-25.87890625,-39.0625,-14.16015625,0.0
1685655596.70122,65.4296875,-25.87890625,-40.0390625,12.20703125,0.0
1685655596.7051165,-60.546875,-28.3203125,-49.31640625,-25.390625,0.0
1685655596.7090132,-102.05078125,-27.83203125,-47.36328125,-54.6875,0.0
1685655596.71291,-25.390625,-29.296875,-41.015625,-24.4140625,0.0
1685655596.7168067,60.546875,-32.71484375,-33.69140625,2.44140625,0.0
1685655596.7207034,-7.8125,-29.78515625,-37.109375,-22.94921875,0.0
1685655596.7246,-85.9375,-30.76171875,-36.1328125,-45.8984375,0.0
1685655596.7284968,-45.8984375,-36.62109375,-35.15625,-27.83203125,0.0
1685655596.7323933,56.15234375,-37.59765625,-31.25,16.6015625,0.0
1685655596.7364225,24.4140625,-36.62109375,-33.69140625,5.859375,0.0
1685655596.7403193,-77.63671875,-32.71484375,-42.48046875,-36.62109375,0.0
1685655596.744216,-60.05859375,-26.85546875,-40.52734375,-41.50390625,0.0
1685655596.7481127,26.85546875,-28.3203125,-31.25,-9.27734375,0.0
1685655596.7520094,38.0859375,-28.3203125,-28.3203125,8.30078125,0.0
1685655596.755906,-82.03125,-25.390625,-35.15625,-42.48046875,0.0
1685655596.7598028,-84.9609375,-28.80859375,-35.64453125,-51.26953125,0.0
1685655596.7636993,-6.34765625,-38.57421875,-33.203125,-29.296875,0.0
1685655596.767596,50.29296875,-41.015625,-35.15625,-11.23046875,0.0
1685655596.7714927,-49.8046875,-38.0859375,-41.015625,-33.203125,0.0
1685655596.7753894,-90.33203125,-39.0625,-35.15625,-34.1796875,0.0
1685655596.7792861,-19.53125,-36.1328125,-33.69140625,-9.765625,0.0
1685655596.783272,65.4296875,-31.73828125,-35.64453125,4.39453125,0.0
1685655596.7871687,-9.765625,-35.15625,-36.62109375,-10.7421875,0.0
1685655596.7910655,-88.8671875,-40.52734375,-38.0859375,-38.57421875,0.0
1685655596.7949622,-50.78125,-38.57421875,-35.64453125,-28.3203125,0.0
1685655596.798859,31.73828125,-33.203125,-41.015625,-13.18359375,0.0
1685655596.8027556,4.8828125,-32.71484375,-37.59765625,-12.6953125,0.0
1685655596.8066523,-103.515625,-35.15625,-36.62109375,-35.64453125,0.0
1685655596.810549,-77.63671875,-34.1796875,-40.0390625,-44.921875,0.0
1685655596.8144457,32.2265625,-32.71484375,-34.1796875,-10.25390625,0.0
1685655596.8183424,52.24609375,-34.1796875,-41.9921875,7.32421875,0.0
1685655596.8222392,-72.265625,-31.73828125,-47.8515625,-28.80859375,0.0
1685655596.8261359,-85.9375,-31.73828125,-42.48046875,-43.45703125,0.0
1685655596.8301551,-5.859375,-37.109375,-41.015625,-35.15625,0.0
1685655596.8340518,70.80078125,-29.296875,-35.64453125,-5.37109375,0.0
1685655596.8379483,-36.1328125,-25.87890625,-41.015625,-12.6953125,0.0
1685655596.841845,-90.8203125,-35.15625,-42.96875,-38.0859375,0.0
1685655596.8457417,-15.13671875,-40.52734375,-41.50390625,-27.34375,0.0
1685655596.8496385,78.125,-30.76171875,-39.0625,7.8125,0.0
1685655596.8535352,14.16015625,-20.5078125,-38.57421875,-3.90625,0.0
1685655596.857432,-83.0078125,-25.390625,-34.1796875,-41.015625,0.0
1685655596.8613286,-43.9453125,-31.73828125,-34.1796875,-36.1328125,0.0
1685655596.8652253,55.17578125,-33.69140625,-36.62109375,0.48828125,0.0
1685655596.869122,30.76171875,-33.69140625,-27.83203125,13.671875,0.0
1685655596.8730187,-88.37890625,-32.2265625,-29.296875,-23.4375,0.0
1685655596.877033,-73.73046875,-32.2265625,-39.55078125,-48.828125,0.0
1685655596.8809297,25.87890625,-32.2265625,-41.50390625,-27.34375,0.0
1685655596.8848264,56.640625,-27.83203125,-35.64453125,0.48828125,0.0
1685655596.8887231,-66.40625,-29.296875,-33.203125,-17.578125,0.0
1685655596.8926198,-90.8203125,-38.57421875,-37.59765625,-30.2734375,0.0
1685655596.8965166,-18.5546875,-42.48046875,-44.43359375,-23.4375,0.0
1685655596.9004133,61.03515625,-32.71484375,-40.0390625,4.8828125,0.0
1685655596.90431,-32.71484375,-33.69140625,-39.55078125,-20.5078125,0.0
1685655596.9082067,-94.7265625,-37.109375,-45.41015625,-51.26953125,0.0
1685655596.9121034,-35.64453125,-29.296875,-40.0390625,-30.2734375,0.0
1685655596.9160001,53.7109375,-29.78515625,-34.66796875,-9.765625,0.0
1685655596.9198968,-2.9296875,-40.52734375,-41.9921875,-27.83203125,0.0
1685655596.9239054,-102.05078125,-41.50390625,-44.43359375,-43.9453125,0.0
1685655596.927802,-65.4296875,-34.1796875,-41.50390625,-30.2734375,0.0
1685655596.9316988,33.203125,-33.203125,-41.9921875,-13.18359375,0.0
1685655596.9355955,23.92578125,-31.25,-36.1328125,2.9296875,0.0
1685655596.9394925,-87.40234375,-30.76171875,-39.0625,-25.390625,0.0
1685655596.9433892,-69.3359375,-34.1796875,-47.36328125,-42.96875,0.0
1685655596.947286,27.34375,-29.296875,-41.50390625,-24.4140625,0.0
1685655596.9511826,56.15234375,-28.3203125,-33.203125,-3.41796875,0.0
1685655596.9550793,-67.87109375,-41.50390625,-35.15625,-19.53125,0.0
1685655596.958976,-89.84375,-43.45703125,-34.1796875,-41.015625,0.0
1685655596.9628727,-9.27734375,-29.78515625,-28.3203125,-19.53125,0.0
1685655596.9667695,67.87109375,-26.85546875,-21.484375,4.8828125,0.0
1685655596.970784,-26.3671875,-33.203125,-23.4375,-18.5546875,0.0
1685655596.9746807,-93.75,-30.76171875,-28.80859375,-49.8046875,0.0
1685655596.9785774,-44.921875,-28.80859375,-30.2734375,-37.109375,0.0
1685655596.982474,52.24609375,-32.2265625,-27.83203125,-0.9765625,0.0
1685655596.986371,11.23046875,-32.2265625,-29.296875,-9.765625,0.0
1685655596.9902678,-86.9140625,-28.3203125,-35.15625,-34.66796875,0.0
1685655596.9941645,-62.5,-26.3671875,-34.1796875,-34.66796875,0.0
1685655596.9980612,29.78515625,-33.69140625,-27.34375,-12.6953125,0.0
1685655597.001958,31.73828125,-40.0390625,-22.94921875,-10.7421875,0.0
1685655597.0058546,-92.28515625,-35.64453125,-27.34375,-58.10546875,0.0
1685655597.0097513,-93.26171875,-37.109375,-36.1328125,-62.5,0.0
1685655597.013648,4.8828125,-37.109375,-38.0859375,-33.203125,0.0
1685655597.0176468,46.38671875,-34.1796875,-32.71484375,-20.01953125,0.0
1685655597.0215435,-74.21875,-42.96875,-26.3671875,-47.8515625,0.0
1685655597.0254405,-102.05078125,-41.015625,-28.3203125,-54.6875,0.0
1685655597.0293372,-23.4375,-29.78515625,-30.2734375,-23.92578125,0.0
1685655597.033234,62.5,-30.2734375,-31.25,2.9296875,0.0
1685655597.0371306,-31.25,-34.1796875,-34.1796875,-26.3671875,0.0
1685655597.0410273,-110.83984375,-33.203125,-34.1796875,-57.6171875,0.0
1685655597.044924,-50.29296875,-32.2265625,-36.1328125,-40.52734375,0.0
1685655597.0488207,46.38671875,-36.1328125,-29.296875,-2.9296875,0.0
1685655597.0527174,-3.41796875,-39.55078125,-31.73828125,-9.27734375,0.0
1685655597.0566142,-104.00390625,-39.0625,-30.2734375,-35.15625,0.0
1685655597.060511,-70.80078125,-35.64453125,-27.34375,-28.80859375,0.0
1685655597.0645037,34.1796875,-33.203125,-33.203125,-2.44140625,0.0
1685655597.0684004,46.38671875,-26.85546875,-27.34375,5.859375,0.0
1685655597.072297,-88.8671875,-32.2265625,-27.83203125,-45.8984375,0.0
1685655597.076194,-97.65625,-37.109375,-35.64453125,-70.80078125,0.0
1685655597.0800908,-8.7890625,-34.1796875,-39.55078125,-41.9921875,0.0
1685655597.0839875,41.015625,-33.69140625,-39.55078125,-23.4375,0.0
1685655597.0878842,-75.68359375,-39.55078125,-44.43359375,-53.22265625,0.0
1685655597.091781,-124.0234375,-43.9453125,-42.48046875,-70.3125,0.0
1685655597.0956776,-52.24609375,-36.1328125,-35.64453125,-57.12890625,0.0
1685655597.0995743,40.0390625,-29.296875,-35.64453125,-27.83203125,0.0
1685655597.1034713,-32.2265625,-31.73828125,-36.62109375,-24.90234375,0.0
1685655597.107368,-112.79296875,-39.55078125,-43.45703125,-48.828125,0.0
1685655597.1113973,-62.5,-41.9921875,-41.9921875,-43.45703125,0.0
1685655597.115294,40.0390625,-34.66796875,-37.109375,-18.5546875,0.0
1685655597.119191,7.8125,-39.0625,-37.59765625,-32.71484375,0.0
1685655597.1230876,-98.6328125,-43.45703125,-38.0859375,-64.453125,0.0
1685655597.1269844,-77.1484375,-38.0859375,-34.66796875,-44.921875,0.0
1685655597.130881,25.87890625,-33.69140625,-33.69140625,-6.8359375,0.0
1685655597.1347778,49.8046875,-33.203125,-32.71484375,13.18359375,0.0
1685655597.1386745,-80.078125,-34.66796875,-40.52734375,-25.390625,0.0
1685655597.1425714,-94.23828125,-38.0859375,-42.48046875,-56.15234375,0.0
1685655597.1464682,-6.8359375,-31.25,-31.73828125,-34.1796875,0.0
1685655597.1503649,62.98828125,-29.296875,-29.78515625,-0.48828125,0.0
1685655597.1542616,-49.8046875,-34.1796875,-38.0859375,-29.78515625,0.0
1685655597.1582854,-98.14453125,-34.1796875,-41.9921875,-56.640625,0.0
1685655597.1621823,-26.3671875,-35.15625,-34.66796875,-27.34375,0.0
1685655597.166079,59.08203125,-32.2265625,-35.64453125,1.46484375,0.0
1685655597.1699758,-9.765625,-28.3203125,-34.1796875,-20.99609375,0.0
1685655597.1738725,-100.5859375,-42.48046875,-38.0859375,-58.59375,0.0
1685655597.1777694,-52.734375,-43.9453125,-41.015625,-51.7578125,0.0
1685655597.1816661,47.36328125,-34.1796875,-40.0390625,-15.13671875,0.0
1685655597.1855628,10.7421875,-35.15625,-44.43359375,-18.06640625,0.0
1685655597.1894596,-97.16796875,-28.80859375,-46.38671875,-37.109375,0.0
1685655597.1933563,-77.1484375,-30.2734375,-48.828125,-48.33984375,0.0
1685655597.1972532,16.6015625,-33.203125,-42.96875,-36.62109375,0.0
1685655597.20115,34.1796875,-29.78515625,-41.50390625,-19.04296875,0.0
1685655597.2051687,-93.75,-40.52734375,-40.0390625,-46.38671875,0.0
1685655597.2090654,-112.79296875,-46.38671875,-36.1328125,-66.89453125,0.0
1685655597.2129622,-34.66796875,-38.0859375,-38.0859375,-62.98828125,0.0
1685655597.2168589,41.015625,-36.62109375,-37.109375,-31.73828125,0.0
1685655597.2207558,-58.10546875,-43.45703125,-33.69140625,-36.62109375,0.0
1685655597.2246525,-109.375,-44.43359375,-30.76171875,-62.5,0.0
1685655597.2285492,-41.015625,-37.59765625,-32.2265625,-55.17578125,0.0
1685655597.232446,43.9453125,-33.203125,-31.25,-21.484375,0.0
1685655597.236343,-24.4140625,-34.1796875,-32.2265625,-29.78515625,0.0
1685655597.2402396,-109.86328125,-38.0859375,-42.96875,-59.08203125,0.0
1685655597.2441363,-70.80078125,-34.1796875,-39.55078125,-52.24609375,0.0
1685655597.2480333,21.97265625,-35.64453125,-25.390625,-22.4609375,0.0
1685655597.252046,-2.44140625,-41.50390625,-31.25,-29.78515625,0.0
1685655597.255943,-105.95703125,-44.43359375,-35.64453125,-64.453125,0.0
1685655597.2598398,-84.47265625,-43.45703125,-29.78515625,-52.24609375,0.0
1685655597.2637365,13.18359375,-40.0390625,-27.83203125,-22.94921875,0.0
1685655597.2676334,47.8515625,-39.0625,-28.80859375,-13.18359375,0.0
1685655597.2715302,-77.1484375,-40.52734375,-31.25,-38.0859375,0.0
1685655597.2754269,-106.4453125,-42.48046875,-34.1796875,-60.546875,0.0
1685655597.2793238,-23.4375,-37.59765625,-34.66796875,-40.0390625,0.0
1685655597.2832205,64.453125,-33.203125,-29.296875,0.0,0.0
1685655597.2871172,-40.0390625,-33.203125,-27.34375,-14.16015625,0.0
1685655597.291014,-105.95703125,-32.71484375,-36.62109375,-51.7578125,0.0
1685655597.294911,-50.78125,-42.48046875,-36.62109375,-51.7578125,0.0
1685655597.298919,38.57421875,-44.43359375,-30.76171875,-12.6953125,0.0
1685655597.3028157,-16.11328125,-37.59765625,-34.1796875,-22.94921875,0.0
1685655597.3067124,-108.3984375,-35.15625,-35.64453125,-64.94140625,0.0
1685655597.3106093,-67.87109375,-35.64453125,-32.71484375,-57.12890625,0.0
1685655597.314506,22.94921875,-34.66796875,-31.73828125,-30.2734375,0.0
1685655597.3184028,-5.859375,-33.203125,-33.203125,-22.94921875,0.0
1685655597.3222997,-104.00390625,-28.3203125,-34.66796875,-45.41015625,0.0
1685655597.3261964,-78.125,-20.99609375,-32.71484375,-42.48046875,0.0
1685655597.3300934,9.765625,-27.34375,-34.1796875,-14.16015625,0.0
1685655597.33399,40.52734375,-30.76171875,-30.76171875,-12.6953125,0.0
1685655597.3378868,-71.2890625,-26.85546875,-35.15625,-43.9453125,0.0
1685655597.3417838,-86.9140625,-26.85546875,-41.9921875,-51.7578125,0.0
1685655597.3457866,-11.71875,-25.87890625,-37.59765625,-30.2734375,0.0
1685655597.3496833,56.15234375,-26.85546875,-33.203125,-7.32421875,0.0
1685655597.35358,-39.0625,-26.85546875,-36.1328125,-20.01953125,0.0
1685655597.357477,-98.6328125,-30.2734375,-38.0859375,-45.41015625,0.0
1685655597.3613737,-40.0390625,-36.1328125,-34.1796875,-44.43359375,0.0
1685655597.3652704,49.8046875,-30.76171875,-34.66796875,-14.16015625,0.0
1685655597.3691673,5.37109375,-30.2734375,-31.73828125,-19.53125,0.0
1685655597.373064,-88.37890625,-30.76171875,-26.3671875,-47.8515625,0.0
1685655597.376961,-55.17578125,-30.2734375,-28.3203125,-39.55078125,0.0
1685655597.3808577,43.9453125,-33.69140625,-31.25,-14.6484375,0.0
1685655597.3847544,26.85546875,-32.71484375,-34.1796875,-10.25390625,0.0
1685655597.3886514,-93.26171875,-37.109375,-40.52734375,-33.69140625,0.0
1685655597.3926566,-82.51953125,-37.109375,-44.921875,-42.48046875,0.0
1685655597.3965535,-0.9765625,-36.1328125,-39.55078125,-33.69140625,0.0
1685655597.4004502,41.9921875,-42.48046875,-40.0390625,-20.01953125,0.0
1685655597.404347,-71.2890625,-40.0390625,-43.45703125,-44.43359375,0.0
1685655597.408244,-100.09765625,-34.1796875,-42.96875,-52.734375,0.0
1685655597.4121406,-21.97265625,-31.73828125,-41.50390625,-37.109375,0.0
1685655597.4160376,48.33984375,-37.109375,-39.0625,-21.484375,0.0
1685655597.4199343,-43.9453125,-42.96875,-45.41015625,-36.1328125,0.0
1685655597.423831,-100.09765625,-32.2265625,-41.015625,-59.5703125,0.0
1685655597.427728,-44.43359375,-30.76171875,-36.62109375,-66.89453125,0.0
1685655597.4316247,47.8515625,-29.296875,-35.15625,-28.80859375,0.0
1685655597.4355216,13.18359375,-20.5078125,-30.2734375,-13.18359375,0.0
1685655597.4395137,-84.47265625,-23.4375,-33.203125,-45.41015625,0.0
1685655597.4434106,-57.6171875,-34.1796875,-34.66796875,-45.41015625,0.0
1685655597.4473073,33.203125,-37.109375,-41.9921875,-17.08984375,0.0
1685655597.4512043,31.25,-36.62109375,-34.66796875,-13.18359375,0.0
1685655597.455101,-83.49609375,-30.76171875,-34.66796875,-46.38671875,0.0
1685655597.458998,-90.33203125,-28.3203125,-44.43359375,-50.29296875,0.0
1685655597.4628947,-3.90625,-28.80859375,-39.0625,-31.25,0.0
1685655597.4667916,48.33984375,-28.80859375,-38.0859375,-9.27734375,0.0
1685655597.4706883,-57.12890625,-33.69140625,-43.45703125,-30.2734375,0.0
1685655597.474585,-83.984375,-36.62109375,-39.55078125,-50.78125,0.0
1685655597.478482,-22.4609375,-35.64453125,-37.59765625,-30.76171875,0.0
1685655597.4823787,56.15234375,-38.0859375,-30.2734375,8.30078125,0.0
1685655597.4864068,-22.94921875,-33.69140625,-28.80859375,-10.7421875,0.0
1685655597.4903035,-94.23828125,-35.15625,-35.15625,-37.109375,0.0
1685655597.4942005,-45.8984375,-38.0859375,-34.1796875,-11.71875,0.0
1685655597.4980972,43.9453125,-36.1328125,-23.4375,3.90625,0.0
1685655597.5019941,11.71875,-37.109375,-22.4609375,-8.30078125,0.0
1685655597.5058908,-86.42578125,-37.109375,-30.76171875,-42.48046875,0.0
1685655597.5097878,-58.59375,-38.0859375,-34.1796875,-42.48046875,0.0
1685655597.5136845,24.90234375,-41.015625,-33.203125,-11.71875,0.0
1685655597.5175815,26.85546875,-42.96875,-35.15625,0.48828125,0.0
1685655597.5214782,-83.49609375,-46.875,-39.55078125,-35.15625,0.0
1685655597.5253751,-90.8203125,-46.38671875,-41.50390625,-57.12890625,0.0
1685655597.5292718,-3.90625,-44.43359375,-42.96875,-26.3671875,0.0
1685655597.5332549,48.33984375,-35.15625,-39.55078125,8.7890625,0.0
1685655597.5371516,-57.12890625,-35.15625,-37.109375,-8.7890625,0.0
1685655597.5410485,-89.35546875,-35.15625,-36.62109375,-29.78515625,0.0
1685655597.5449452,-31.73828125,-36.1328125,-34.1796875,-26.3671875,0.0
1685655597.5488422,48.828125,-39.55078125,-35.64453125,-4.39453125,0.0
1685655597.552739,-24.90234375,-38.57421875,-26.85546875,-17.08984375,0.0
1685655597.5566359,-107.421875,-41.50390625,-32.2265625,-60.546875,0.0
1685655597.5605326,-55.6640625,-41.9921875,-39.0625,-52.734375,0.0
1685655597.5644295,43.9453125,-39.55078125,-29.296875,-19.53125,0.0
1685655597.5683262,18.06640625,-33.69140625,-32.2265625,-13.18359375,0.0
1685655597.5722232,-88.37890625,-36.62109375,-41.015625,-26.3671875,0.0
1685655597.5761201,-75.68359375,-41.50390625,-43.45703125,-43.9453125,0.0
1685655597.5801384,15.13671875,-41.50390625,-40.0390625,-30.2734375,0.0
1685655597.5840352,38.0859375,-42.48046875,-35.64453125,-13.18359375,0.0
1685655597.587932,-79.1015625,-44.921875,-40.0390625,-35.15625,0.0
1685655597.5918288,-90.8203125,-37.59765625,-47.8515625,-45.41015625,0.0
1685655597.5957258,-8.7890625,-33.203125,-40.0390625,-19.53125,0.0
1685655597.5996225,54.19921875,-32.2265625,-36.1328125,4.8828125,0.0
1685655597.6035194,-54.19921875,-27.34375,-39.55078125,-31.25,0.0
1685655597.6074164,-97.16796875,-26.3671875,-36.1328125,-65.4296875,0.0
1685655597.611313,-33.69140625,-27.83203125,-39.0625,-43.45703125,0.0
1685655597.61521,40.52734375,-31.73828125,-40.52734375,-12.6953125,0.0
1685655597.6191068,-26.85546875,-33.203125,-40.0390625,-21.97265625,0.0
1685655597.6230037,-105.95703125,-40.52734375,-41.9921875,-44.921875,0.0
1685655597.6270177,-59.08203125,-38.0859375,-37.59765625,-48.828125,0.0
1685655597.6309147,43.45703125,-30.2734375,-35.64453125,-27.83203125,0.0
1685655597.6348114,18.5546875,-29.78515625,-42.48046875,-23.4375,0.0
1685655597.6387084,-89.84375,-31.73828125,-42.96875,-49.31640625,0.0
1685655597.642605,-66.89453125,-34.66796875,-36.1328125,-42.96875,0.0
1685655597.646502,29.78515625,-35.15625,-35.15625,-13.671875,0.0
1685655597.650399,45.8984375,-32.71484375,-30.2734375,-1.953125,0.0
1685655597.6542957,-84.9609375,-32.71484375,-27.34375,-35.15625,0.0
1685655597.6581926,-88.8671875,-29.296875,-28.3203125,-44.43359375,0.0
1685655597.6620893,-5.859375,-27.83203125,-25.87890625,-21.97265625,0.0
1685655597.6659863,62.98828125,-30.2734375,-27.83203125,3.90625,0.0
1685655597.6698833,-33.69140625,-26.85546875,-39.0625,-9.27734375,0.0
1685655597.6738918,-90.33203125,-26.85546875,-45.8984375,-28.80859375,0.0
1685655597.6777887,-34.1796875,-26.85546875,-41.9921875,-14.16015625,0.0
1685655597.6816854,60.546875,-28.80859375,-36.1328125,8.7890625,0.0
1685655597.6855824,0.9765625,-29.296875,-29.296875,-10.25390625,0.0
1685655597.6894794,-92.28515625,-26.85546875,-27.83203125,-35.15625,0.0
1685655597.693376,-55.6640625,-30.76171875,-28.3203125,-23.4375,0.0
1685655597.697273,39.0625,-32.2265625,-28.3203125,-11.23046875,0.0
1685655597.70117,18.5546875,-32.2265625,-28.80859375,-14.16015625,0.0
1685655597.7050667,-99.609375,-45.8984375,-32.2265625,-42.96875,0.0
1685655597.7089636,-89.84375,-48.33984375,-37.109375,-52.24609375,0.0
1685655597.7128603,1.953125,-39.0625,-30.76171875,-21.97265625,0.0
1685655597.7167573,37.59765625,-35.64453125,-32.2265625,-19.53125,0.0
1685655597.720761,-80.078125,-40.0390625,-41.50390625,-50.78125,0.0
1685655597.7246578,-105.95703125,-43.9453125,-39.55078125,-54.19921875,0.0
1685655597.7285547,-29.296875,-37.109375,-34.1796875,-38.57421875,0.0
1685655597.7324517,46.875,-33.69140625,-29.78515625,-17.578125,0.0
1685655597.7363484,-47.8515625,-35.64453125,-29.78515625,-26.85546875,0.0
1685655597.7402453,-98.6328125,-30.76171875,-39.55078125,-48.828125,0.0
1685655597.7441423,-41.015625,-29.296875,-34.66796875,-40.52734375,0.0
1685655597.748039,55.6640625,-31.25,-31.25,3.41796875,0.0
1685655597.751936,4.39453125,-27.83203125,-28.3203125,2.9296875,0.0
1685655597.755833,-89.84375,-26.85546875,-24.90234375,-52.24609375,0.0
1685655597.7597296,-47.8515625,-29.78515625,-30.2734375,-50.78125,0.0
1685655597.7636266,38.0859375,-35.15625,-29.78515625,-8.30078125,0.0
1685655597.7676253,23.92578125,-36.1328125,-32.2265625,4.39453125,0.0
1685655597.7715223,-79.58984375,-26.85546875,-33.69140625,-35.15625,0.0
1685655597.775419,-73.73046875,-24.4140625,-28.80859375,-51.26953125,0.0
1685655597.779316,21.97265625,-26.3671875,-30.2734375,-19.53125,0.0
1685655597.783213,65.91796875,-24.90234375,-31.73828125,6.8359375,0.0
1685655597.7871096,-55.17578125,-23.92578125,-34.1796875,-15.625,0.0
1685655597.7910066,-81.54296875,-30.2734375,-38.0859375,-38.0859375,0.0
1685655597.7949035,-5.37109375,-38.0859375,-38.0859375,-20.5078125,0.0
1685655597.7988005,62.98828125,-38.0859375,-35.15625,1.46484375,0.0
1685655597.8026972,-32.71484375,-37.59765625,-37.109375,-33.203125,0.0
1685655597.8065941,-94.7265625,-43.45703125,-39.55078125,-63.4765625,0.0
1685655597.810491,-31.25,-33.69140625,-43.45703125,-31.25,0.0
1685655597.814484,56.640625,-30.76171875,-39.0625,6.8359375,0.0
1685655597.8183808,2.44140625,-38.0859375,-31.25,-12.6953125,0.0
1685655597.8222778,-94.23828125,-36.1328125,-32.2265625,-54.19921875,0.0
1685655597.8261745,-70.80078125,-34.66796875,-33.203125,-63.96484375,0.0
1685655597.8300714,23.92578125,-36.1328125,-39.0625,-28.3203125,0.0
1685655597.8339684,31.25,-39.0625,-45.8984375,-2.44140625,0.0
1685655597.8378654,-85.9375,-38.57421875,-41.9921875,-41.50390625,0.0
1685655597.841762,-89.35546875,-30.2734375,-41.9921875,-48.828125,0.0
1685655597.845659,-1.46484375,-31.25,-41.9921875,-27.34375,0.0
1685655597.849556,45.41015625,-35.15625,-40.52734375,-19.04296875,0.0
1685655597.853453,-76.171875,-34.1796875,-47.36328125,-41.50390625,0.0
1685655597.8573496,-107.421875,-28.80859375,-41.015625,-50.29296875,0.0
1685655597.8613782,-32.71484375,-29.296875,-35.15625,-40.52734375,0.0
1685655597.865275,49.8046875,-34.66796875,-41.9921875,-13.18359375,0.0
1685655597.8691719,-32.71484375,-42.96875,-41.9921875,-28.3203125,0.0
1685655597.8730688,-116.69921875,-49.31640625,-41.50390625,-59.08203125,0.0
1685655597.8769658,-66.89453125,-47.36328125,-41.50390625,-62.98828125,0.0
1685655597.8808625,31.73828125,-44.43359375,-38.0859375,-30.76171875,0.0
1685655597.8847594,-2.44140625,-42.48046875,-31.25,-18.5546875,0.0
1685655597.8886564,-100.09765625,-38.0859375,-31.25,-54.6875,0.0
1685655597.8925533,-81.0546875,-32.71484375,-35.64453125,-57.6171875,0.0
1685655597.89645,18.06640625,-36.1328125,-33.69140625,-22.4609375,0.0
1685655597.900347,26.3671875,-35.15625,-29.78515625,-12.20703125,0.0
1685655597.904244,-96.19140625,-30.2734375,-32.71484375,-51.26953125,0.0
1685655597.9082675,-92.7734375,-33.203125,-39.0625,-65.91796875,0.0
1685655597.9121644,2.44140625,-31.25,-29.296875,-31.73828125,0.0
1685655597.9160614,50.29296875,-31.25,-23.92578125,0.0,0.0
1685655597.919958,-72.75390625,-37.59765625,-36.1328125,-46.875,0.0
1685655597.923855,-104.00390625,-37.109375,-40.0390625,-63.4765625,0.0
1685655597.927752,-29.78515625,-39.55078125,-38.57421875,-42.48046875,0.0
1685655597.931649,56.640625,-41.50390625,-41.015625,-3.90625,0.0
1685655597.935546,-24.4140625,-37.59765625,-36.1328125,-11.23046875,0.0
1685655597.9394426,-110.3515625,-42.96875,-28.80859375,-58.10546875,0.0
1685655597.9433396,-56.640625,-40.0390625,-36.62109375,-52.24609375,0.0
1685655597.9472365,40.52734375,-37.59765625,-41.50390625,-20.01953125,0.0
1685655597.9511335,6.34765625,-30.76171875,-38.0859375,-15.13671875,0.0
1685655597.9551504,-93.26171875,-27.83203125,-36.1328125,-47.8515625,0.0
1685655597.9590473,-67.3828125,-30.76171875,-33.203125,-50.29296875,0.0
1685655597.962944,33.69140625,-27.34375,-36.1328125,-9.765625,0.0
1685655597.966841,51.26953125,-24.4140625,-35.64453125,6.34765625,0.0
1685655597.970738,-71.77734375,-29.78515625,-33.69140625,-32.71484375,0.0
1685655597.974635,-80.56640625,-30.2734375,-31.73828125,-46.38671875,0.0
1685655597.9785318,3.90625,-34.66796875,-31.25,-12.20703125,0.0
1685655597.9824288,55.6640625,-39.55078125,-31.73828125,5.37109375,0.0
1685655597.9863255,-53.7109375,-39.55078125,-34.66796875,-29.78515625,0.0
1685655597.9902225,-92.28515625,-37.59765625,-44.43359375,-40.52734375,0.0
1685655597.9941194,-32.2265625,-34.66796875,-37.109375,-34.66796875,0.0
1685655597.9980164,49.8046875,-33.203125,-20.5078125,-12.6953125,0.0
1685655598.0020683,-32.71484375,-39.55078125,-30.2734375,-20.01953125,0.0
1685655598.0059652,-110.3515625,-44.921875,-41.015625,-45.41015625,0.0
1685655598.0098622,-56.640625,-36.1328125,-38.0859375,-28.3203125,0.0
1685655598.0137591,38.0859375,-36.1328125,-38.57421875,-5.859375,0.0
1685655598.017656,12.20703125,-40.52734375,-35.15625,-29.296875,0.0
1685655598.021553,-97.16796875,-44.43359375,-31.25,-69.3359375,0.0
1685655598.02545,-68.84765625,-46.875,-34.66796875,-57.12890625,0.0
1685655598.0293467,20.5078125,-49.8046875,-35.64453125,-30.76171875,0.0
1685655598.0332437,34.66796875,-49.31640625,-39.0625,-20.99609375,0.0
1685655598.0371406,-84.9609375,-50.78125,-36.1328125,-42.96875,0.0
1685655598.0410376,-99.609375,-52.24609375,-30.2734375,-52.734375,0.0
1685655598.0449345,-16.6015625,-40.0390625,-33.203125,-21.97265625,0.0
1685655598.048941,48.33984375,-34.1796875,-34.1796875,5.859375,0.0
1685655598.0528378,-60.05859375,-40.0390625,-40.0390625,-33.69140625,0.0
1685655598.0567346,-108.88671875,-41.50390625,-39.55078125,-60.546875,0.0
1685655598.0606315,-46.875,-41.015625,-37.109375,-44.921875,0.0
1685655598.0645285,47.8515625,-36.1328125,-43.45703125,-15.625,0.0
1685655598.0684254,-22.4609375,-39.55078125,-38.57421875,-19.53125,0.0
1685655598.0723224,-108.88671875,-42.96875,-30.76171875,-45.41015625,0.0
1685655598.0762193,-53.22265625,-33.203125,-33.203125,-41.9921875,0.0
1685655598.0801163,33.69140625,-36.62109375,-38.57421875,-18.06640625,0.0
1685655598.0840132,11.23046875,-40.52734375,-35.15625,-16.11328125,0.0
1685655598.0879102,-82.51953125,-34.66796875,-27.34375,-45.41015625,0.0
1685655598.0918071,-68.84765625,-37.59765625,-30.76171875,-44.43359375,0.0
1685655598.0958083,19.04296875,-36.62109375,-34.1796875,-15.13671875,0.0
1685655598.0997052,49.31640625,-31.25,-29.296875,6.34765625,0.0
1685655598.1036022,-67.3828125,-36.62109375,-33.69140625,-22.94921875,0.0
1685655598.1074991,-91.796875,-36.62109375,-32.71484375,-41.015625,0.0
1685655598.111396,-9.765625,-30.2734375,-27.83203125,-29.78515625,0.0
1685655598.115293,61.03515625,-31.73828125,-25.87890625,-1.46484375,0.0
1685655598.11919,-42.48046875,-29.78515625,-28.3203125,-17.578125,0.0
1685655598.123087,-92.7734375,-27.83203125,-26.85546875,-35.64453125,0.0
1685655598.126984,-34.66796875,-25.87890625,-28.3203125,-31.25,0.0
1685655598.1308808,51.7578125,-27.34375,-29.296875,-17.08984375,0.0
1685655598.1347778,-6.34765625,-29.78515625,-22.94921875,-22.4609375,0.0
1685655598.1386747,-91.796875,-27.83203125,-20.01953125,-48.33984375,0.0
1685655598.1426709,-56.640625,-28.3203125,-26.85546875,-48.33984375,0.0
1685655598.1465678,33.69140625,-23.4375,-29.296875,-15.625,0.0
1685655598.1504648,13.18359375,-22.94921875,-26.85546875,-2.9296875,0.0
1685655598.1543617,-101.07421875,-33.203125,-35.64453125,-44.43359375,0.0
1685655598.1582587,-88.8671875,-37.109375,-37.59765625,-64.453125,0.0
1685655598.1621556,1.953125,-27.34375,-32.71484375,-45.41015625,0.0
1685655598.1660526,36.62109375,-21.97265625,-36.1328125,-31.25,0.0
1685655598.1699495,-76.66015625,-25.87890625,-40.52734375,-44.43359375,0.0
1685655598.1738465,-99.12109375,-23.4375,-43.9453125,-48.828125,0.0
1685655598.1777434,-19.04296875,-17.578125,-40.0390625,-27.83203125,0.0
1685655598.1816404,60.546875,-18.5546875,-40.52734375,3.41796875,0.0
1685655598.1855373,-37.59765625,-25.87890625,-46.38671875,-23.4375,0.0
1685655598.189528,-93.26171875,-30.2734375,-44.921875,-52.24609375,0.0
1685655598.193425,-24.90234375,-25.390625,-41.015625,-25.390625,0.0
1685655598.197322,62.01171875,-28.80859375,-33.69140625,4.39453125,0.0
1685655598.201219,-4.39453125,-34.1796875,-30.76171875,-14.6484375,0.0
1685655598.205116,-94.23828125,-32.2265625,-34.1796875,-38.57421875,0.0
1685655598.209013,-56.640625,-29.78515625,-41.50390625,-39.55078125,0.0
1685655598.21291,32.2265625,-31.25,-44.43359375,-22.4609375,0.0
1685655598.216807,20.99609375,-29.78515625,-32.71484375,-20.01953125,0.0
1685655598.2207038,-92.28515625,-33.203125,-37.59765625,-49.8046875,0.0
1685655598.2246008,-91.30859375,-37.109375,-46.875,-57.12890625,0.0
1685655598.2284977,7.8125,-35.15625,-40.0390625,-22.94921875,0.0
1685655598.2323947,48.33984375,-38.0859375,-36.1328125,-4.8828125,0.0
1685655598.2364209,-78.61328125,-40.0390625,-38.0859375,-30.2734375,0.0
1685655598.2403178,-104.4921875,-40.0390625,-36.1328125,-56.640625,0.0
1685655598.2442148,-27.34375,-40.52734375,-40.0390625,-40.52734375,0.0
1685655598.2481117,54.6875,-38.0859375,-41.015625,2.9296875,0.0
1685655598.2520087,-39.0625,-36.1328125,-41.50390625,-15.625,0.0
1685655598.2559056,-100.5859375,-39.0625,-42.48046875,-39.55078125,0.0
1685655598.2598026,-40.52734375,-42.48046875,-43.9453125,-40.0390625,0.0
1685655598.2636995,39.0625,-39.55078125,-41.015625,-25.390625,0.0
1685655598.2675967,-2.9296875,-37.109375,-40.52734375,-13.671875,0.0
1685655598.2714937,-99.12109375,-45.41015625,-42.96875,-34.1796875,0.0
1685655598.2753906,-78.61328125,-47.36328125,-43.45703125,-47.8515625,0.0
1685655598.2792876,24.4140625,-39.55078125,-36.62109375,-30.2734375,0.0
1685655598.2832692,21.97265625,-36.1328125,-30.2734375,-21.484375,0.0
1685655598.287166,-95.703125,-39.0625,-36.62109375,-49.31640625,0.0
1685655598.291063,-89.84375,-36.1328125,-41.015625,-48.33984375,0.0
1685655598.29496,4.8828125,-31.73828125,-29.78515625,-19.04296875,0.0
1685655598.2988572,47.36328125,-32.2265625,-27.83203125,-19.04296875,0.0
1685655598.3027542,-65.91796875,-28.80859375,-40.0390625,-36.62109375,0.0
1685655598.306651,-90.33203125,-34.66796875,-39.55078125,-33.203125,0.0
1685655598.310548,-19.53125,-42.96875,-40.0390625,-28.3203125,0.0
1685655598.314445,57.6171875,-43.9453125,-43.45703125,-8.7890625,0.0
1685655598.318342,-39.0625,-41.50390625,-45.8984375,-18.06640625,0.0
1685655598.322239,-104.4921875,-39.55078125,-34.66796875,-44.43359375,0.0
1685655598.3261359,-35.64453125,-27.83203125,-35.15625,-39.0625,0.0
1685655598.3301518,54.6875,-22.4609375,-33.69140625,-4.39453125,0.0
1685655598.334049,8.7890625,-27.83203125,-29.78515625,7.32421875,0.0
1685655598.337946,-90.8203125,-33.203125,-30.76171875,-35.15625,0.0
1685655598.341843,-65.4296875,-34.66796875,-29.296875,-42.48046875,0.0
1685655598.3457398,35.15625,-35.15625,-27.83203125,-6.8359375,0.0
1685655598.3496368,38.57421875,-37.109375,-30.2734375,3.90625,0.0
1685655598.3535337,-88.8671875,-41.50390625,-34.66796875,-21.97265625,0.0
1685655598.3574307,-91.796875,-39.0625,-35.15625,-34.66796875,0.0
1685655598.361328,3.90625,-41.015625,-33.69140625,-22.94921875,0.0
1685655598.3652248,54.6875,-38.0859375,-33.203125,2.9296875,0.0
1685655598.3691218,-59.5703125,-31.25,-35.64453125,-14.6484375,0.0
1685655598.3730187,-93.26171875,-34.1796875,-32.71484375,-50.78125,0.0
1685655598.3770318,-27.83203125,-39.0625,-34.1796875,-46.38671875,0.0
1685655598.3809288,63.4765625,-34.1796875,-31.73828125,-9.765625,0.0
1685655598.3848257,-19.53125,-31.73828125,-31.25,-25.87890625,0.0
1685655598.3887227,-112.3046875,-38.0859375,-30.76171875,-53.22265625,0.0
1685655598.3926196,-58.59375,-39.55078125,-37.109375,-36.1328125,0.0
1685655598.3965168,40.0390625,-41.50390625,-41.9921875,-9.765625,0.0
1685655598.4004138,1.953125,-39.55078125,-31.25,-10.25390625,0.0
1685655598.4043107,-96.19140625,-37.109375,-25.390625,-41.9921875,0.0
1685655598.4082077,-63.4765625,-37.59765625,-30.2734375,-54.19921875,0.0
1685655598.4121046,37.59765625,-41.50390625,-30.2734375,-20.99609375,0.0
1685655598.4160018,47.36328125,-38.57421875,-27.34375,-1.953125,0.0
1685655598.4198987,-82.03125,-38.0859375,-39.55078125,-27.83203125,0.0
1685655598.423945,-92.28515625,-35.64453125,-42.48046875,-36.1328125,0.0
1685655598.427842,0.9765625,-30.2734375,-30.76171875,-34.66796875,0.0
1685655598.4317389,61.03515625,-30.2734375,-28.80859375,0.0,0.0
1685655598.4356358,-56.640625,-32.2265625,-32.71484375,-10.7421875,0.0
1685655598.4395328,-104.00390625,-38.57421875,-36.1328125,-47.8515625,0.0
1685655598.44343,-39.0625,-39.55078125,-48.828125,-47.36328125,0.0
1685655598.447327,57.6171875,-28.80859375,-45.8984375,-11.23046875,0.0
1685655598.4512239,-15.13671875,-32.71484375,-35.15625,-12.20703125,0.0
1685655598.4551208,-101.07421875,-43.45703125,-35.15625,-32.2265625,0.0
1685655598.459018,-52.24609375,-38.0859375,-34.1796875,-29.78515625,0.0
1685655598.462915,47.36328125,-33.69140625,-38.0859375,-13.671875,0.0
1685655598.466812,13.671875,-35.15625,-41.50390625,-12.6953125,0.0
1685655598.4708126,-104.00390625,-39.0625,-42.96875,-42.96875,0.0
1685655598.4747095,-74.21875,-37.109375,-43.9453125,-43.9453125,0.0
1685655598.4786065,30.2734375,-34.66796875,-40.52734375,-20.01953125,0.0
1685655598.4825034,45.8984375,-37.59765625,-38.57421875,-13.671875,0.0
1685655598.4864006,-76.66015625,-34.66796875,-49.31640625,-42.48046875,0.0
1685655598.4902976,-89.84375,-33.203125,-51.26953125,-57.12890625,0.0
1685655598.4941945,-6.34765625,-35.15625,-38.0859375,-32.71484375,0.0
1685655598.4980915,54.6875,-28.80859375,-34.1796875,5.37109375,0.0
1685655598.5019886,-56.15234375,-30.2734375,-30.2734375,-19.04296875,0.0
1685655598.5058856,-99.12109375,-30.2734375,-30.76171875,-50.29296875,0.0
1685655598.5097826,-36.1328125,-26.3671875,-30.76171875,-31.73828125,0.0
1685655598.5136795,51.26953125,-31.25,-30.2734375,-0.9765625,0.0
1685655598.5176747,-11.23046875,-28.80859375,-26.3671875,-5.37109375,0.0
1685655598.5215716,-94.23828125,-27.83203125,-34.1796875,-39.55078125,0.0
1685655598.5254686,-47.36328125,-29.78515625,-46.38671875,-34.66796875,0.0
1685655598.5293655,53.7109375,-22.4609375,-35.15625,6.34765625,0.0
1685655598.5332627,31.73828125,-22.4609375,-29.78515625,13.18359375,0.0
1685655598.5371597,-78.61328125,-27.34375,-28.80859375,-11.71875,0.0
1685655598.5410566,-59.08203125,-23.92578125,-26.3671875,-30.2734375,0.0
1685655598.5449538,35.15625,-23.92578125,-39.0625,-18.5546875,0.0
1685655598.5488508,53.7109375,-26.85546875,-37.109375,3.41796875,0.0
1685655598.5527477,-70.3125,-25.390625,-37.59765625,-33.203125,0.0
1685655598.5566447,-88.37890625,-28.3203125,-39.55078125,-52.24609375,0.0
1685655598.5605419,-5.37109375,-29.78515625,-37.59765625,-28.3203125,0.0
1685655598.5645316,65.91796875,-26.3671875,-38.0859375,4.39453125,0.0
1685655598.5684288,-44.921875,-26.3671875,-40.0390625,-14.16015625,0.0
1685655598.5723257,-101.5625,-28.3203125,-40.52734375,-48.828125,0.0
1685655598.5762227,-35.64453125,-27.34375,-36.62109375,-45.8984375,0.0
1685655598.5801196,55.6640625,-29.296875,-36.1328125,-8.30078125,0.0
1685655598.5840168,-9.27734375,-32.2265625,-33.69140625,-7.32421875,0.0
1685655598.5879138,-96.6796875,-35.64453125,-38.57421875,-44.43359375,0.0
1685655598.5918107,-51.7578125,-35.15625,-41.9921875,-57.6171875,0.0
1685655598.595708,39.0625,-38.0859375,-34.66796875,-36.1328125,0.0
1685655598.5996048,10.25390625,-42.48046875,-36.1328125,-24.90234375,0.0
1685655598.6035018,-100.09765625,-43.9453125,-49.31640625,-36.1328125,0.0
1685655598.607399,-75.68359375,-39.55078125,-46.38671875,-44.43359375,0.0
1685655598.6114254,22.94921875,-27.34375,-38.57421875,-28.3203125,0.0
1685655598.6153224,46.38671875,-31.25,-37.59765625,-3.41796875,0.0
1685655598.6192195,-80.078125,-41.015625,-40.52734375,-41.015625,0.0
1685655598.6231165,-95.703125,-34.1796875,-38.0859375,-68.84765625,0.0
1685655598.6270134,-18.5546875,-32.2265625,-33.69140625,-44.921875,0.0
1685655598.6309106,50.29296875,-38.57421875,-35.15625,-4.39453125,0.0
1685655598.6348076,-50.29296875,-43.45703125,-37.109375,-17.578125,0.0
1685655598.6387045,-111.81640625,-40.0390625,-38.57421875,-63.4765625,0.0
1685655598.6426017,-50.78125,-40.52734375,-38.0859375,-56.15234375,0.0
1685655598.6464987,46.38671875,-38.57421875,-30.76171875,-6.34765625,0.0
1685655598.6503956,-12.6953125,-34.1796875,-27.83203125,-18.5546875,0.0
1685655598.6542928,-108.3984375,-39.0625,-28.3203125,-48.828125,0.0
1685655598.6582744,-68.84765625,-38.0859375,-33.69140625,-41.50390625,0.0
1685655598.6621714,32.71484375,-38.0859375,-34.1796875,-19.53125,0.0
1685655598.6660683,15.13671875,-41.9921875,-33.69140625,-22.4609375,0.0
1685655598.6699655,-107.91015625,-41.9921875,-40.52734375,-52.24609375,0.0
1685655598.6738625,-96.6796875,-39.0625,-42.48046875,-52.734375,0.0
1685655598.6777596,1.953125,-34.66796875,-38.57421875,-39.0625,0.0
1685655598.6816566,32.71484375,-36.62109375,-36.1328125,-7.8125,0.0
1685655598.6855536,-84.47265625,-37.59765625,-38.0859375,-20.5078125,0.0
1685655598.6894507,-106.4453125,-33.69140625,-40.52734375,-63.4765625,0.0
1685655598.6933477,-34.66796875,-38.0859375,-41.50390625,-37.59765625,0.0
1685655598.6972446,45.41015625,-36.1328125,-41.015625,0.9765625,0.0
1685655598.7011418,-49.8046875,-32.2265625,-32.2265625,-26.3671875,0.0
1685655598.7051568,-120.1171875,-36.62109375,-27.34375,-54.19921875,0.0
1685655598.7090538,-52.734375,-39.0625,-37.59765625,-47.8515625,0.0
1685655598.7129507,42.96875,-38.0859375,-35.15625,-18.06640625,0.0
1685655598.716848,-14.16015625,-36.1328125,-32.2265625,-12.6953125,0.0
1685655598.7207448,-107.91015625,-37.59765625,-32.71484375,-34.1796875,0.0
1685655598.724642,-72.75390625,-39.0625,-30.76171875,-33.69140625,0.0
1685655598.728539,34.66796875,-33.203125,-23.92578125,-10.25390625,0.0
1685655598.7324362,31.25,-29.296875,-20.5078125,-10.25390625,0.0
1685655598.7363331,-88.8671875,-33.203125,-32.71484375,-46.38671875,0.0
1685655598.74023,-84.47265625,-31.25,-36.1328125,-52.24609375,0.0
1685655598.7441273,6.8359375,-25.87890625,-33.203125,-41.9921875,0.0
1685655598.7480242,52.24609375,-34.1796875,-34.66796875,-19.04296875,0.0
1685655598.7520344,-64.94140625,-37.109375,-35.64453125,-20.99609375,0.0
1685655598.7559314,-86.9140625,-33.69140625,-40.52734375,-38.57421875,0.0
1685655598.7598286,-4.39453125,-30.76171875,-34.1796875,-29.296875,0.0
1685655598.7637255,74.70703125,-27.83203125,-23.92578125,0.48828125,0.0
1685655598.7676227,-22.4609375,-23.4375,-32.2265625,-17.578125,0.0
1685655598.7715197,-97.16796875,-24.90234375,-38.57421875,-34.66796875,0.0
1685655598.7754166,-38.0859375,-35.15625,-35.15625,-27.34375,0.0
1685655598.7793138,53.7109375,-38.57421875,-29.296875,-15.13671875,0.0
1685655598.7832108,4.39453125,-38.0859375,-33.69140625,-13.671875,0.0
1685655598.787108,-103.02734375,-40.52734375,-43.9453125,-42.96875,0.0
1685655598.791005,-71.77734375,-38.57421875,-44.921875,-47.8515625,0.0
1685655598.794902,34.1796875,-33.69140625,-41.9921875,-24.4140625,0.0
1685655598.7989078,34.66796875,-33.203125,-40.0390625,-6.34765625,0.0
1685655598.8028047,-77.63671875,-32.71484375,-38.57421875,-22.94921875,0.0
1685655598.806702,-85.44921875,-37.109375,-37.59765625,-41.015625,0.0
1685655598.8105989,0.48828125,-40.52734375,-33.203125,-21.484375,0.0
1685655598.814496,54.6875,-28.80859375,-29.296875,4.8828125,0.0
1685655598.818393,-66.89453125,-31.25,-31.73828125,-24.90234375,0.0
1685655598.8222902,-101.07421875,-34.66796875,-30.2734375,-45.41015625,0.0
1685655598.8261871,-26.3671875,-30.2734375,-34.66796875,-28.80859375,0.0
1685655598.8300843,53.7109375,-34.1796875,-38.57421875,2.44140625,0.0
1685655598.8339813,-33.69140625,-32.71484375,-36.62109375,-9.765625,0.0
1685655598.8378785,-101.5625,-29.78515625,-41.50390625,-46.875,0.0
1685655598.8417754,-45.8984375,-31.73828125,-42.96875,-46.875,0.0
1685655598.8457763,47.36328125,-31.73828125,-38.0859375,-19.53125,0.0
1685655598.8496733,5.37109375,-35.15625,-35.64453125,-14.16015625,0.0
1685655598.8535705,-98.6328125,-34.66796875,-36.62109375,-34.1796875,0.0
1685655598.8574674,-62.98828125,-30.2734375,-40.52734375,-43.45703125,0.0
1685655598.8613646,37.109375,-33.69140625,-42.48046875,-29.78515625,0.0
1685655598.8652616,41.9921875,-35.15625,-38.0859375,-20.01953125,0.0
1685655598.8691587,-80.56640625,-32.2265625,-33.69140625,-54.19921875,0.0
1685655598.8730557,-87.890625,-34.66796875,-36.1328125,-62.98828125,0.0
1685655598.876953,-0.9765625,-32.2265625,-37.109375,-37.59765625,0.0
1685655598.8808498,50.78125,-27.34375,-31.25,-7.8125,0.0
1685655598.884747,-65.91796875,-30.76171875,-30.76171875,-20.01953125,0.0
1685655598.888644,-111.81640625,-34.1796875,-36.62109375,-61.03515625,0.0
1685655598.8926399,-36.62109375,-32.2265625,-38.0859375,-39.0625,0.0
1685655598.896537,57.12890625,-30.76171875,-29.78515625,11.23046875,0.0
1685655598.900434,-31.25,-31.73828125,-31.73828125,-13.671875,0.0
1685655598.9043312,-110.3515625,-40.0390625,-36.1328125,-43.45703125,0.0
1685655598.9082282,-55.6640625,-37.109375,-32.2265625,-41.9921875,0.0
1685655598.9121253,40.0390625,-27.83203125,-31.73828125,-23.92578125,0.0
1685655598.9160223,12.20703125,-32.2265625,-39.55078125,-20.01953125,0.0
1685655598.9199195,-96.19140625,-38.57421875,-41.015625,-40.0390625,0.0
1685655598.9238164,-72.265625,-35.64453125,-33.203125,-40.0390625,0.0
1685655598.9277136,24.90234375,-31.73828125,-30.76171875,-17.578125,0.0
1685655598.9316106,23.4375,-34.1796875,-31.25,-10.7421875,0.0
1685655598.9355078,-97.16796875,-38.0859375,-27.34375,-37.109375,0.0
1685655598.9394984,-91.30859375,-34.1796875,-33.69140625,-36.1328125,0.0
1685655598.9433956,-0.9765625,-26.85546875,-33.69140625,-23.4375,0.0
1685655598.9472926,62.5,-31.25,-20.5078125,5.859375,0.0
1685655598.9511898,-50.29296875,-36.1328125,-28.3203125,-19.53125,0.0
1685655598.955087,-96.6796875,-37.59765625,-33.203125,-44.921875,0.0
1685655598.958984,-28.3203125,-42.96875,-32.2265625,-29.78515625,0.0
1685655598.962881,59.08203125,-38.57421875,-33.69140625,-11.23046875,0.0
1685655598.966778,-15.13671875,-42.48046875,-36.62109375,-16.11328125,0.0
1685655598.9706752,-101.5625,-41.50390625,-35.15625,-34.1796875,0.0
1685655598.9745722,-49.31640625,-36.1328125,-27.83203125,-30.2734375,0.0
1685655598.9784694,49.8046875,-41.015625,-20.99609375,6.8359375,0.0
1685655598.9823666,22.4609375,-38.0859375,-19.53125,20.99609375,0.0
1685655598.9863524,-87.890625,-35.15625,-22.4609375,-23.4375,0.0
1685655598.9902494,-79.1015625,-34.66796875,-20.99609375,-33.69140625,0.0
1685655598.9941466,20.01953125,-33.203125,-30.2734375,-10.25390625,0.0
1685655598.9980435,49.31640625,-30.76171875,-31.25,8.7890625,0.0
1685655599.0019407,-78.125,-29.78515625,-30.76171875,-14.6484375,0.0
1685655599.005838,-96.6796875,-36.62109375,-31.73828125,-44.921875,0.0
1685655599.0097349,-4.39453125,-35.15625,-32.71484375,-23.4375,0.0
1685655599.013632,62.98828125,-32.2265625,-28.80859375,10.25390625,0.0
1685655599.017529,-50.29296875,-36.1328125,-30.2734375,-15.625,0.0
1685655599.0214262,-93.26171875,-37.59765625,-32.71484375,-50.78125,0.0
1685655599.0253234,-24.90234375,-32.2265625,-30.2734375,-52.24609375,0.0
1685655599.0292203,64.453125,-30.76171875,-25.390625,-9.27734375,0.0
1685655599.0332031,-5.859375,-33.69140625,-32.71484375,-12.6953125,0.0
1685655599.0371,-94.7265625,-37.109375,-34.1796875,-49.31640625,0.0
1685655599.0409973,-51.26953125,-35.15625,-32.2265625,-38.0859375,0.0
1685655599.0448942,38.57421875,-29.296875,-29.296875,-11.23046875,0.0
1685655599.0487914,22.4609375,-39.0625,-22.94921875,-18.5546875,0.0
1685655599.0526886,-84.47265625,-46.875,-41.9921875,-47.8515625,0.0
1685655599.0565856,-73.73046875,-40.52734375,-44.43359375,-53.22265625,0.0
1685655599.0604827,18.5546875,-34.1796875,-27.83203125,-21.97265625,0.0
1685655599.06438,43.45703125,-34.1796875,-34.66796875,11.23046875,0.0
1685655599.068277,-82.51953125,-31.25,-45.41015625,-13.671875,0.0
1685655599.072174,-95.703125,-25.390625,-41.50390625,-40.52734375,0.0
1685655599.076071,-8.7890625,-25.87890625,-40.52734375,-37.109375,0.0
1685655599.0800872,57.12890625,-27.34375,-35.64453125,-18.5546875,0.0
1685655599.0839841,-48.33984375,-27.83203125,-33.203125,-28.3203125,0.0
1685655599.0878813,-105.46875,-29.296875,-44.921875,-53.22265625,0.0
1685655599.0917785,-48.828125,-31.73828125,-41.50390625,-28.80859375,0.0
1685655599.0956755,42.96875,-31.25,-33.203125,11.71875,0.0
1685655599.0995727,-5.859375,-31.25,-36.1328125,-9.27734375,0.0
1685655599.1034698,-99.609375,-34.66796875,-34.1796875,-48.33984375,0.0
1685655599.1073668,-60.546875,-30.76171875,-36.62109375,-55.6640625,0.0
1685655599.111264,43.9453125,-27.34375,-39.55078125,-24.4140625,0.0
1685655599.1151612,21.97265625,-34.66796875,-40.52734375,-11.71875,0.0
1685655599.1190581,-98.14453125,-35.15625,-37.109375,-49.8046875,0.0
1685655599.1229553,-85.44921875,-32.71484375,-31.73828125,-49.31640625,0.0
1685655599.1269648,12.20703125,-32.2265625,-30.2734375,-13.18359375,0.0
1685655599.130862,48.828125,-29.296875,-31.73828125,-13.18359375,0.0
1685655599.1347592,-75.1953125,-26.85546875,-35.64453125,-43.45703125,0.0
1685655599.1386564,-96.19140625,-31.25,-37.109375,-58.59375,0.0
1685655599.1425533,-11.71875,-31.73828125,-32.71484375,-30.76171875,0.0
1685655599.1464505,61.5234375,-32.2265625,-25.87890625,-0.9765625,0.0
1685655599.1503477,-36.62109375,-34.66796875,-28.80859375,-26.3671875,0.0
1685655599.1542447,-95.703125,-33.203125,-30.2734375,-33.203125,0.0
1685655599.1581419,-35.15625,-38.0859375,-31.25,-24.4140625,0.0
1685655599.162039,53.22265625,-39.55078125,-33.69140625,-11.23046875,0.0
1685655599.165936,-13.18359375,-39.55078125,-39.0625,-17.08984375,0.0
1685655599.1698332,-106.93359375,-42.96875,-42.48046875,-40.52734375,0.0
1685655599.1738377,-63.4765625,-38.57421875,-40.0390625,-33.203125,0.0
1685655599.1777349,33.203125,-37.59765625,-31.73828125,-16.11328125,0.0
1685655599.1816318,18.06640625,-33.69140625,-24.90234375,-10.7421875,0.0
1685655599.185529,-103.02734375,-34.66796875,-33.69140625,-33.69140625,0.0
1685655599.1894262,-83.984375,-39.55078125,-44.43359375,-46.38671875,0.0
1685655599.1933234,9.27734375,-33.203125,-40.0390625,-22.94921875,0.0
1685655599.1972203,29.78515625,-29.78515625,-41.50390625,-10.7421875,0.0
1685655599.2011175,-94.7265625,-32.71484375,-44.43359375,-50.29296875,0.0
1685655599.2050147,-113.28125,-36.62109375,-44.43359375,-44.43359375,0.0
1685655599.2089117,-30.76171875,-27.83203125,-41.50390625,-25.87890625,0.0
1685655599.2128088,54.6875,-30.76171875,-38.0859375,-16.6015625,0.0
1685655599.216706,-40.0390625,-39.0625,-41.9921875,-20.5078125,0.0
1685655599.2207057,-110.3515625,-34.66796875,-38.57421875,-43.45703125,0.0
1685655599.2246027,-52.734375,-33.203125,-31.73828125,-44.43359375,0.0
1685655599.2285,45.8984375,-37.109375,-33.203125,-10.25390625,0.0
1685655599.232397,-3.41796875,-36.1328125,-35.15625,-12.20703125,0.0
1685655599.2362943,-104.00390625,-31.25,-38.0859375,-54.19921875,0.0
1685655599.2401912,-85.9375,-33.69140625,-37.109375,-56.640625,0.0
1685655599.2440884,18.5546875,-36.62109375,-32.71484375,-20.5078125,0.0
1685655599.2479856,25.87890625,-37.59765625,-35.15625,-12.20703125,0.0
1685655599.2518828,-91.796875,-37.59765625,-35.15625,-41.015625,0.0
1685655599.2557797,-85.44921875,-29.296875,-32.71484375,-55.6640625,0.0
1685655599.259677,7.8125,-26.85546875,-37.109375,-31.25,0.0
1685655599.2635741,56.15234375,-32.71484375,-35.15625,6.8359375,0.0
1685655599.2675686,-66.40625,-32.71484375,-38.0859375,-21.97265625,0.0
1685655599.2714658,-104.00390625,-25.390625,-40.0390625,-43.9453125,0.0
1685655599.2753627,-24.90234375,-27.83203125,-34.66796875,-28.3203125,0.0
1685655599.27926,53.7109375,-36.1328125,-31.73828125,-10.7421875,0.0
1685655599.283157,-40.0390625,-36.1328125,-33.203125,-24.90234375,0.0
1685655599.2870543,-105.95703125,-37.59765625,-41.50390625,-47.8515625,0.0
1685655599.2909515,-49.8046875,-38.0859375,-41.015625,-44.43359375,0.0
1685655599.2948484,56.15234375,-28.80859375,-40.52734375,-4.39453125,0.0
1685655599.2987456,14.16015625,-26.85546875,-37.59765625,-2.9296875,0.0
1685655599.3026428,-95.703125,-39.55078125,-33.203125,-51.26953125,0.0
1685655599.30654,-69.3359375,-46.38671875,-37.109375,-57.6171875,0.0
1685655599.3104372,24.90234375,-39.55078125,-37.59765625,-26.3671875,0.0
1685655599.3144267,29.296875,-40.0390625,-34.66796875,-11.71875,0.0
1685655599.3183236,-88.8671875,-43.45703125,-31.25,-42.48046875,0.0
1685655599.3222208,-95.703125,-38.57421875,-34.1796875,-53.7109375,0.0
1685655599.326118,-5.37109375,-36.62109375,-29.78515625,-33.69140625,0.0
1685655599.3300152,52.24609375,-35.15625,-25.87890625,-8.7890625,0.0
1685655599.3339124,-63.96484375,-34.1796875,-37.59765625,-24.90234375,0.0
1685655599.3378093,-99.609375,-29.78515625,-37.59765625,-42.96875,0.0
1685655599.3417065,-32.71484375,-26.3671875,-34.66796875,-24.4140625,0.0
1685655599.3456037,52.24609375,-30.76171875,-27.34375,0.48828125,0.0
1685655599.349501,-26.85546875,-30.76171875,-26.85546875,-23.92578125,0.0
1685655599.353398,-105.46875,-29.78515625,-44.43359375,-46.38671875,0.0
1685655599.3572953,-57.12890625,-32.2265625,-35.64453125,-37.59765625,0.0
1685655599.3613224,39.0625,-31.73828125,-29.78515625,-18.5546875,0.0
1685655599.3652196,-1.46484375,-31.25,-35.15625,-13.18359375,0.0
1685655599.3691165,-108.3984375,-26.3671875,-33.203125,-32.2265625,0.0
1685655599.3730137,-76.66015625,-23.92578125,-37.59765625,-47.8515625,0.0
1685655599.376911,30.76171875,-32.71484375,-41.50390625,-24.4140625,0.0
1685655599.380808,41.9921875,-35.15625,-38.57421875,-3.41796875,0.0
1685655599.3847053,-82.03125,-34.1796875,-36.1328125,-26.3671875,0.0
1685655599.3886025,-90.33203125,-33.203125,-38.57421875,-43.9453125,0.0
1685655599.3924997,-6.34765625,-33.69140625,-40.0390625,-39.0625,0.0
1685655599.3963966,48.33984375,-39.55078125,-35.15625,-6.34765625,0.0
1685655599.4002938,-62.98828125,-35.15625,-38.57421875,-25.390625,0.0
1685655599.404191,-107.91015625,-33.203125,-42.96875,-58.59375,0.0
1685655599.4081721,-34.66796875,-37.59765625,-36.1328125,-39.0625,0.0
1685655599.4120693,62.5,-33.203125,-31.25,-7.8125,0.0
1685655599.4159663,-8.30078125,-28.3203125,-41.015625,-18.5546875,0.0
1685655599.4198635,-81.54296875,-35.15625,-48.828125,-32.71484375,0.0
1685655599.4237607,-20.01953125,-35.15625,-43.9453125,-31.25,0.0
1685655599.4276578,70.80078125,-33.203125,-40.0390625,-18.06640625,0.0
1685655599.431555,30.76171875,-39.0625,-40.0390625,-11.23046875,0.0
1685655599.4354522,-91.30859375,-38.57421875,-38.57421875,-49.8046875,0.0
1685655599.4393494,-74.70703125,-35.15625,-35.64453125,-62.98828125,0.0
1685655599.4432466,24.4140625,-29.296875,-37.109375,-22.4609375,0.0
1685655599.4471438,37.59765625,-23.4375,-35.64453125,-8.30078125,0.0
1685655599.451041,-83.984375,-20.01953125,-29.78515625,-47.36328125,0.0
1685655599.455055,-92.28515625,-19.53125,-29.296875,-56.15234375,0.0
1685655599.4589522,-0.48828125,-20.99609375,-39.0625,-33.203125,0.0
1685655599.4628494,47.36328125,-23.4375,-37.59765625,-2.44140625,0.0
1685655599.4667466,-58.10546875,-30.76171875,-33.69140625,-24.90234375,0.0
1685655599.4706438,-98.6328125,-35.15625,-41.015625,-50.29296875,0.0
1685655599.474541,-39.0625,-40.0390625,-38.57421875,-28.80859375,0.0
1685655599.4784381,52.24609375,-37.59765625,-32.71484375,-7.8125,0.0
1685655599.4823353,-16.11328125,-34.1796875,-33.69140625,-33.203125,0.0
1685655599.4862325,-104.98046875,-34.66796875,-38.0859375,-54.6875,0.0
1685655599.4901297,-62.98828125,-32.71484375,-41.015625,-38.0859375,0.0
1685655599.494027,29.78515625,-36.1328125,-40.0390625,-24.90234375,0.0
1685655599.497924,11.71875,-39.0625,-38.0859375,-20.01953125,0.0
1685655599.5019329,-97.16796875,-36.1328125,-37.59765625,-51.26953125,0.0
1685655599.50583,-83.984375,-35.64453125,-37.109375,-64.453125,0.0
1685655599.5097272,19.04296875,-36.1328125,-32.2265625,-15.625,0.0
1685655599.5136244,41.015625,-35.15625,-33.203125,17.578125,0.0
1685655599.5175216,-78.125,-36.1328125,-42.96875,-20.99609375,0.0
1685655599.5214188,-91.796875,-34.1796875,-45.8984375,-52.24609375,0.0
1685655599.525316,-19.04296875,-35.15625,-40.52734375,-43.45703125,0.0
1685655599.5292132,47.8515625,-33.203125,-33.69140625,-21.484375,0.0
1685655599.5331104,-62.01171875,-32.71484375,-38.0859375,-37.109375,0.0
1685655599.5370076,-113.28125,-34.1796875,-43.45703125,-57.12890625,0.0
1685655599.5409048,-42.48046875,-28.3203125,-37.109375,-53.22265625,0.0
1685655599.544802,45.41015625,-35.15625,-29.78515625,-22.4609375,0.0
1685655599.548806,-16.11328125,-37.109375,-30.2734375,-19.04296875,0.0
1685655599.5527031,-105.46875,-26.3671875,-33.69140625,-53.7109375,0.0
1685655599.5566003,-65.91796875,-32.2265625,-32.2265625,-50.29296875,0.0
1685655599.5604975,23.4375,-42.48046875,-29.78515625,-22.94921875,0.0
1685655599.5643947,3.41796875,-35.15625,-31.73828125,-23.92578125,0.0
1685655599.568292,-94.23828125,-25.87890625,-41.015625,-48.33984375,0.0
1685655599.572189,-83.49609375,-23.92578125,-38.57421875,-42.48046875,0.0
1685655599.5760863,13.18359375,-27.34375,-41.50390625,-6.34765625,0.0
1685655599.5799835,55.17578125,-29.296875,-41.015625,6.8359375,0.0
1685655599.5838807,-74.21875,-32.2265625,-33.69140625,-31.73828125,0.0
1685655599.5877779,-99.12109375,-34.66796875,-40.0390625,-54.6875,0.0
1685655599.591675,-12.20703125,-31.73828125,-44.43359375,-42.48046875,0.0
1685655599.595674,69.3359375,-31.73828125,-37.59765625,-5.37109375,0.0
1685655599.5995712,-34.66796875,-37.109375,-33.203125,-9.27734375,0.0
1685655599.6034684,-94.7265625,-40.52734375,-28.80859375,-37.59765625,0.0
1685655599.6073656,-21.97265625,-34.66796875,-27.83203125,-34.66796875,0.0
1685655599.6112628,68.359375,-37.59765625,-26.3671875,1.46484375,0.0
1685655599.61516,6.34765625,-35.64453125,-27.34375,1.953125,0.0
1685655599.6190574,-98.6328125,-32.71484375,-36.62109375,-45.41015625,0.0
1685655599.6229546,-68.359375,-33.203125,-40.0390625,-55.6640625,0.0
1685655599.6268518,31.73828125,-32.71484375,-31.25,-16.6015625,0.0
1685655599.630749,25.87890625,-33.69140625,-33.203125,-2.9296875,0.0
1685655599.6346462,-93.26171875,-38.0859375,-41.015625,-54.6875,0.0
1685655599.6385434,-86.42578125,-41.50390625,-37.59765625,-73.2421875,0.0
1685655599.6425374,10.25390625,-36.62109375,-35.64453125,-32.71484375,0.0
1685655599.6464345,47.36328125,-31.25,-33.203125,-3.41796875,0.0
1685655599.6503317,-68.84765625,-41.9921875,-31.25,-29.78515625,0.0
1685655599.654229,-88.37890625,-51.26953125,-36.1328125,-58.10546875,0.0
1685655599.658126,-19.04296875,-41.9921875,-38.57421875,-39.0625,0.0
1685655599.6620233,54.6875,-43.45703125,-38.0859375,-6.8359375,0.0
1685655599.6659205,-30.2734375,-37.109375,-38.57421875,-27.34375,0.0
1685655599.6698177,-98.6328125,-36.1328125,-34.66796875,-45.41015625,0.0
1685655599.673715,-50.29296875,-39.55078125,-36.1328125,-36.1328125,0.0
1685655599.6776123,48.33984375,-32.71484375,-24.90234375,-0.48828125,0.0
1685655599.6815095,-2.9296875,-34.1796875,-31.25,-9.27734375,0.0
1685655599.6854067,-104.98046875,-30.2734375,-45.8984375,-41.9921875,0.0
1685655599.689435,-69.3359375,-24.90234375,-31.73828125,-41.015625,0.0
1685655599.6933322,30.76171875,-25.390625,-30.76171875,-9.765625,0.0
1685655599.6972296,16.11328125,-33.69140625,-35.64453125,-14.16015625,0.0
1685655599.7011268,-101.07421875,-37.109375,-32.71484375,-49.31640625,0.0
1685655599.705024,-84.47265625,-30.2734375,-25.390625,-46.875,0.0
1685655599.7089212,11.23046875,-29.78515625,-26.85546875,-34.66796875,0.0
1685655599.7128184,46.875,-38.0859375,-34.1796875,-11.23046875,0.0
1685655599.7167156,-72.265625,-44.43359375,-34.1796875,-22.4609375,0.0
1685655599.7206128,-101.07421875,-42.48046875,-36.1328125,-43.45703125,0.0
1685655599.72451,-26.3671875,-33.69140625,-38.0859375,-30.2734375,0.0
1685655599.7284071,57.12890625,-25.390625,-34.1796875,0.0,0.0
1685655599.7323043,-31.25,-26.3671875,-35.64453125,-12.6953125,0.0
1685655599.736328,-101.5625,-33.203125,-36.1328125,-38.0859375,0.0
1685655599.740225,-50.78125,-37.109375,-37.109375,-37.59765625,0.0
1685655599.7441225,48.828125,-33.69140625,-35.64453125,-11.71875,0.0
1685655599.7480197,2.44140625,-35.64453125,-32.2265625,-20.01953125,0.0
1685655599.751917,-97.16796875,-36.1328125,-28.80859375,-41.015625,0.0
1685655599.755814,-56.640625,-31.73828125,-32.71484375,-22.94921875,0.0
1685655599.7597113,35.15625,-29.296875,-38.57421875,0.0,0.0
1685655599.7636085,23.92578125,-30.2734375,-36.62109375,-15.13671875,0.0
1685655599.7675056,-93.26171875,-31.25,-42.96875,-51.7578125,0.0
1685655599.771403,-94.23828125,-35.64453125,-38.57421875,-44.43359375,0.0
1685655599.7753003,-7.32421875,-34.1796875,-36.62109375,-18.5546875,0.0
1685655599.7791975,43.45703125,-30.76171875,-39.0625,4.39453125,0.0
1685655599.783179,-70.80078125,-39.0625,-38.57421875,-13.671875,0.0
1685655599.7870762,-104.00390625,-41.9921875,-42.48046875,-47.8515625,0.0
1685655599.7909734,-26.85546875,-39.0625,-37.109375,-40.52734375,0.0
1685655599.7948706,63.96484375,-34.66796875,-33.203125,-0.48828125,0.0
1685655599.7987678,-21.484375,-42.96875,-39.55078125,-12.6953125,0.0
1685655599.8026652,-100.5859375,-48.33984375,-42.96875,-43.9453125,0.0
1685655599.8065624,-50.78125,-37.59765625,-50.29296875,-29.296875,0.0
1685655599.8104596,43.9453125,-36.1328125,-45.8984375,3.90625,0.0
1685655599.8143568,3.90625,-40.0390625,-41.9921875,-2.44140625,0.0
1685655599.818254,-90.8203125,-46.875,-37.59765625,-41.015625,0.0
1685655599.8221512,-66.40625,-47.8515625,-38.57421875,-43.9453125,0.0
1685655599.8260486,33.69140625,-35.15625,-40.0390625,-9.765625,0.0
1685655599.830064,48.33984375,-32.71484375,-34.66796875,12.20703125,0.0
1685655599.8339612,-68.84765625,-34.66796875,-39.55078125,-14.6484375,0.0
1685655599.8378584,-77.1484375,-29.78515625,-43.9453125,-50.78125,0.0
1685655599.8417556,-2.9296875,-26.3671875,-40.52734375,-43.45703125,0.0
1685655599.845653,32.71484375,-24.4140625,-31.73828125,-4.8828125,0.0
1685655599.8495502,-68.84765625,-25.87890625,-30.76171875,-18.5546875,0.0
1685655599.8534474,-105.46875,-27.83203125,-30.2734375,-51.7578125,0.0
1685655599.8573446,-41.015625,-31.73828125,-32.71484375,-41.50390625,0.0
1685655599.8612418,48.828125,-32.71484375,-37.59765625,-16.6015625,0.0
1685655599.8651392,-31.73828125,-38.0859375,-34.66796875,-29.78515625,0.0
1685655599.8690364,-113.76953125,-37.59765625,-41.50390625,-52.734375,0.0
1685655599.8729336,-59.08203125,-30.76171875,-37.59765625,-56.640625,0.0
1685655599.876942,49.8046875,-30.2734375,-22.4609375,-27.34375,0.0
1685655599.8808393,15.625,-34.1796875,-21.97265625,-25.87890625,0.0
1685655599.8847365,-103.515625,-41.9921875,-23.4375,-54.19921875,0.0
1685655599.8886337,-84.47265625,-35.15625,-19.53125,-52.734375,0.0
1685655599.892531,21.484375,-24.4140625,-17.578125,-20.99609375,0.0
1685655599.8964283,34.66796875,-31.25,-23.92578125,-2.44140625,0.0
1685655599.9003255,-88.8671875,-37.59765625,-27.83203125,-34.1796875,0.0
1685655599.9042227,-88.37890625,-36.62109375,-30.76171875,-52.734375,0.0
1685655599.90812,-6.8359375,-36.1328125,-32.71484375,-25.87890625,0.0
1685655599.9120173,51.26953125,-34.1796875,-26.85546875,4.8828125,0.0
1685655599.9159145,-54.6875,-31.25,-20.99609375,-24.4140625,0.0
1685655599.9198117,-100.09765625,-35.64453125,-28.80859375,-56.640625,0.0
1685655599.923815,-30.76171875,-42.96875,-29.78515625,-45.8984375,0.0
1685655599.9277122,54.6875,-46.38671875,-20.99609375,-27.34375,0.0
1685655599.9316096,-27.83203125,-42.48046875,-35.64453125,-37.109375,0.0
1685655599.9355068,-105.95703125,-42.96875,-37.109375,-47.8515625,0.0
1685655599.939404,-43.45703125,-39.55078125,-27.83203125,-30.76171875,0.0
1685655599.9433012,42.96875,-36.1328125,-29.296875,-16.11328125,0.0
1685655599.9471986,6.34765625,-33.203125,-30.76171875,-18.5546875,0.0
1685655599.9510958,-97.65625,-30.76171875,-36.62109375,-35.64453125,0.0
1685655599.954993,-73.73046875,-36.62109375,-46.38671875,-32.2265625,0.0
1685655599.9588902,27.34375,-35.64453125,-39.0625,-20.01953125,0.0
1685655599.9627876,44.43359375,-33.69140625,-33.203125,-12.20703125,0.0
1685655599.9666848,-74.70703125,-30.2734375,-29.78515625,-32.2265625,0.0
1685655599.970683,-86.42578125,-32.71484375,-30.76171875,-49.31640625,0.0
1685655599.9745803,-5.859375,-35.64453125,-38.57421875,-29.296875,0.0
1685655599.9784777,65.91796875,-33.69140625,-36.1328125,5.37109375,0.0
1685655599.982375,-40.52734375,-41.015625,-31.73828125,-23.92578125,0.0
1685655599.986272,-104.98046875,-43.9453125,-37.59765625,-41.9921875,0.0
1685655599.9901693,-42.96875,-42.96875,-43.45703125,-38.0859375,0.0
1685655599.9940667,54.6875,-39.55078125,-39.55078125,-13.18359375,0.0
1685655599.997964,-19.53125,-38.0859375,-36.1328125,-6.34765625,0.0
1685655600.001861,-113.28125,-43.45703125,-38.0859375,-41.50390625,0.0
1685655600.0057585,-65.91796875,-33.69140625,-33.203125,-50.78125,0.0
1685655600.0096557,31.25,-30.76171875,-37.109375,-18.06640625,0.0
1685655600.013553,9.765625,-34.66796875,-39.55078125,-11.71875,0.0
1685655600.0175464,-100.5859375,-32.71484375,-36.1328125,-46.875,0.0
1685655600.0214436,-89.84375,-29.296875,-34.66796875,-59.5703125,0.0
1685655600.0253408,6.34765625,-34.1796875,-33.69140625,-34.1796875,0.0
1685655600.0292382,30.2734375,-36.62109375,-41.50390625,-14.16015625,0.0
1685655600.0331354,-92.28515625,-34.1796875,-41.9921875,-56.15234375,0.0
1685655600.0370326,-94.7265625,-35.15625,-38.57421875,-65.91796875,0.0
1685655600.04093,-9.27734375,-32.2265625,-40.52734375,-32.71484375,0.0
1685655600.0448272,58.10546875,-32.71484375,-40.52734375,-3.41796875,0.0
1685655600.0487244,-36.62109375,-35.15625,-32.2265625,-24.90234375,0.0
1685655600.0526218,-98.6328125,-37.59765625,-28.3203125,-44.43359375,0.0
1685655600.056519,-40.52734375,-39.55078125,-36.1328125,-31.73828125,0.0
1685655600.0604162,52.734375,-38.0859375,-39.55078125,-17.08984375,0.0
1685655600.0644064,-20.99609375,-37.59765625,-38.57421875,-26.85546875,0.0
1685655600.0683036,-114.2578125,-36.62109375,-43.45703125,-53.22265625,0.0
1685655600.072201,-72.265625,-34.1796875,-43.9453125,-59.5703125,0.0
1685655600.0760982,16.6015625,-38.0859375,-41.9921875,-27.34375,0.0
1685655600.0799954,4.39453125,-41.50390625,-38.57421875,-6.8359375,0.0
1685655600.0838928,-99.609375,-39.55078125,-36.1328125,-27.83203125,0.0
1685655600.08779,-83.984375,-35.64453125,-43.9453125,-44.43359375,0.0
1685655600.0916874,15.13671875,-40.52734375,-43.45703125,-36.62109375,0.0
1685655600.0955846,47.8515625,-41.015625,-29.296875,-10.7421875,0.0
1685655600.0994818,-73.2421875,-39.0625,-33.203125,-26.85546875,0.0
1685655600.1033792,-101.07421875,-41.015625,-41.9921875,-52.24609375,0.0
1685655600.1072764,-20.5078125,-32.71484375,-33.69140625,-23.4375,0.0
1685655600.1112988,60.05859375,-34.1796875,-24.90234375,15.625,0.0
1685655600.1151962,-46.38671875,-42.48046875,-24.4140625,-14.16015625,0.0
1685655600.1190934,-109.375,-45.41015625,-31.25,-68.84765625,0.0
1685655600.1229908,-40.52734375,-43.45703125,-32.71484375,-58.59375,0.0
1685655600.126888,61.5234375,-42.96875,-35.15625,-8.30078125,0.0
1685655600.1307852,6.8359375,-41.50390625,-41.015625,-3.90625,0.0
1685655600.1346827,-94.7265625,-40.52734375,-41.015625,-34.66796875,0.0
1685655600.1385798,-65.4296875,-42.96875,-35.15625,-50.29296875,0.0
1685655600.1424773,37.59765625,-32.2265625,-33.69140625,-20.5078125,0.0
1685655600.1463745,29.78515625,-31.25,-33.203125,-13.671875,0.0
1685655600.1502717,-97.16796875,-37.59765625,-37.59765625,-49.31640625,0.0
1685655600.154169,-95.21484375,-38.0859375,-45.41015625,-61.5234375,0.0
1685655600.1581488,4.8828125,-37.109375,-43.45703125,-40.0390625,0.0
1685655600.162046,46.875,-31.73828125,-35.64453125,-21.484375,0.0
1685655600.1659434,-75.68359375,-38.0859375,-38.0859375,-51.26953125,0.0
1685655600.1698406,-101.07421875,-49.31640625,-37.59765625,-69.82421875,0.0
1685655600.173738,-27.34375,-43.9453125,-36.1328125,-45.41015625,0.0
1685655600.1776352,50.78125,-33.69140625,-36.62109375,-14.6484375,0.0
1685655600.1815324,-40.0390625,-35.15625,-27.34375,-31.73828125,0.0
1685655600.1854298,-113.76953125,-40.0390625,-28.3203125,-62.5,0.0
1685655600.189327,-55.6640625,-36.62109375,-31.73828125,-55.17578125,0.0
1685655600.1932244,50.78125,-33.203125,-26.85546875,-22.4609375,0.0
1685655600.1971216,5.37109375,-38.0859375,-32.2265625,-13.18359375,0.0
1685655600.2010188,-96.6796875,-33.203125,-40.0390625,-49.31640625,0.0
1685655600.2050319,-62.5,-29.78515625,-40.52734375,-41.9921875,0.0
1685655600.2089293,40.52734375,-31.25,-35.64453125,13.18359375,0.0
1685655600.2128265,37.109375,-27.83203125,-33.203125,10.25390625,0.0
1685655600.216724,-81.0546875,-31.73828125,-37.109375,-38.57421875,0.0
1685655600.220621,-75.1953125,-35.15625,-42.96875,-38.0859375,0.0
1685655600.2245185,19.53125,-27.83203125,-47.8515625,-5.859375,0.0
1685655600.2284157,63.96484375,-24.4140625,-36.62109375,2.9296875,0.0
1685655600.2323132,-56.640625,-27.34375,-31.25,-43.45703125,0.0
1685655600.2362103,-87.890625,-26.85546875,-36.1328125,-55.17578125,0.0
1685655600.2401078,-12.6953125,-23.4375,-32.2265625,-30.76171875,0.0
1685655600.244005,63.4765625,-26.3671875,-23.92578125,-8.7890625,0.0
1685655600.2479022,-26.85546875,-33.69140625,-27.34375,-15.625,0.0
1685655600.251919,-96.19140625,-33.203125,-35.64453125,-34.66796875,0.0
1685655600.2558162,-43.45703125,-31.25,-33.69140625,-36.62109375,0.0
1685655600.2597136,54.6875,-24.90234375,-33.203125,-13.671875,0.0
1685655600.2636108,6.34765625,-21.97265625,-33.69140625,-10.25390625,0.0
1685655600.2675083,-98.14453125,-29.78515625,-33.203125,-44.921875,0.0
1685655600.2714055,-64.453125,-27.83203125,-34.1796875,-54.19921875,0.0
1685655600.275303,34.66796875,-26.85546875,-28.80859375,-24.4140625,0.0
1685655600.2792,30.76171875,-32.71484375,-29.296875,-5.859375,0.0
1685655600.2830975,-87.40234375,-33.203125,-37.109375,-34.1796875,0.0
1685655600.2869947,-87.40234375,-37.109375,-35.64453125,-45.8984375,0.0
1685655600.2908921,4.8828125,-35.15625,-31.73828125,-34.1796875,0.0
1685655600.2947893,56.15234375,-29.296875,-24.4140625,-9.765625,0.0
1685655600.2987921,-66.89453125,-36.1328125,-24.4140625,-31.73828125,0.0
1685655600.3026896,-102.5390625,-36.1328125,-27.34375,-63.96484375,0.0
1685655600.3065867,-39.0625,-34.1796875,-26.85546875,-41.50390625,0.0
1685655600.3104842,49.31640625,-33.69140625,-26.85546875,16.11328125,0.0
1685655600.3143814,-26.3671875,-35.15625,-33.69140625,-3.90625,0.0
1685655600.3182788,-104.98046875,-35.64453125,-43.9453125,-54.6875,0.0
1685655600.322176,-49.8046875,-34.66796875,-35.64453125,-34.66796875,0.0
1685655600.3260734,42.96875,-30.76171875,-30.2734375,3.41796875,0.0
1685655600.3299706,2.44140625,-25.87890625,-32.71484375,-3.41796875,0.0
1685655600.333868,-105.95703125,-24.90234375,-36.62109375,-45.8984375,0.0
1685655600.3377655,-77.1484375,-25.87890625,-34.1796875,-51.7578125,0.0
1685655600.3416626,27.34375,-25.390625,-27.83203125,-14.16015625,0.0
1685655600.345663,31.25,-27.34375,-30.2734375,-8.7890625,0.0
1685655600.3495605,-90.8203125,-37.109375,-30.76171875,-37.59765625,0.0
1685655600.3534577,-97.16796875,-35.15625,-31.73828125,-48.828125,0.0
1685655600.357355,-9.27734375,-30.2734375,-31.73828125,-34.1796875,0.0
1685655600.3612523,51.7578125,-34.66796875,-26.3671875,-8.30078125,0.0
1685655600.3651497,-60.546875,-36.1328125,-29.296875,-32.71484375,0.0
1685655600.369047,-102.5390625,-35.64453125,-28.3203125,-50.29296875,0.0
1685655600.3729444,-34.1796875,-26.3671875,-28.3203125,-35.15625,0.0
1685655600.3768418,48.33984375,-25.87890625,-32.2265625,-14.6484375,0.0
1685655600.380739,-29.78515625,-29.296875,-42.48046875,-32.2265625,0.0
1685655600.3846364,-104.98046875,-23.4375,-45.41015625,-48.33984375,0.0
1685655600.3885336,-57.12890625,-27.83203125,-47.8515625,-47.8515625,0.0
1685655600.3925264,39.55078125,-25.390625,-44.921875,-21.484375,0.0
1685655600.3964238,1.953125,-27.34375,-36.62109375,-20.99609375,0.0
1685655600.400321,-110.83984375,-32.71484375,-37.109375,-58.10546875,0.0
1685655600.4042184,-86.42578125,-27.83203125,-36.62109375,-50.29296875,0.0
1685655600.4081159,19.04296875,-20.5078125,-35.15625,-24.90234375,0.0
1685655600.412013,33.203125,-22.4609375,-33.69140625,-11.23046875,0.0
1685655600.4159105,-89.84375,-33.203125,-41.015625,-37.59765625,0.0
1685655600.4198077,-94.23828125,-32.71484375,-45.8984375,-50.78125,0.0
1685655600.423705,-8.30078125,-23.92578125,-36.62109375,-22.94921875,0.0
1685655600.4276023,60.05859375,-24.90234375,-25.87890625,9.765625,0.0
1685655600.4314997,-48.33984375,-30.2734375,-35.64453125,-12.20703125,0.0
1685655600.4353971,-109.375,-34.66796875,-42.96875,-53.7109375,0.0
1685655600.4393852,-45.41015625,-35.64453125,-49.8046875,-54.6875,0.0
1685655600.4432826,51.26953125,-35.15625,-49.31640625,-18.06640625,0.0
1685655600.4471798,-23.92578125,-39.0625,-41.015625,-10.25390625,0.0
1685655600.4510772,-108.3984375,-36.62109375,-44.921875,-39.0625,0.0
1685655600.4549744,-61.03515625,-34.1796875,-43.9453125,-46.875,0.0
1685655600.4588718,34.66796875,-40.52734375,-41.9921875,-16.11328125,0.0
1685655600.4627693,13.18359375,-40.52734375,-43.45703125,-15.625,0.0
1685655600.4666665,-95.703125,-37.109375,-43.45703125,-54.6875,0.0
1685655600.470564,-79.58984375,-39.0625,-45.8984375,-63.4765625,0.0
1685655600.474461,15.625,-36.1328125,-42.48046875,-30.76171875,0.0
1685655600.4783585,40.52734375,-32.71484375,-37.59765625,-7.8125,0.0
1685655600.482256,-82.51953125,-28.80859375,-42.48046875,-40.0390625,0.0
1685655600.4862778,-105.46875,-33.69140625,-43.45703125,-55.6640625,0.0
1685655600.4901752,-28.80859375,-46.38671875,-42.48046875,-33.203125,0.0
1685655600.4940727,41.50390625,-51.7578125,-43.9453125,-1.46484375,0.0
1685655600.4979699,-51.26953125,-41.9921875,-44.43359375,-19.53125,0.0
1685655600.5018673,-94.7265625,-37.59765625,-46.875,-48.33984375,0.0
1685655600.5057647,-28.3203125,-41.015625,-42.48046875,-30.2734375,0.0
1685655600.509662,52.734375,-43.45703125,-32.2265625,16.6015625,0.0
1685655600.5135593,-9.27734375,-39.55078125,-34.66796875,-11.23046875,0.0
1685655600.5174568,-87.40234375,-31.25,-37.59765625,-42.48046875,0.0
1685655600.521354,-50.78125,-31.73828125,-35.15625,-31.73828125,0.0
1685655600.5252514,49.31640625,-31.25,-28.3203125,-2.9296875,0.0
1685655600.5291488,24.4140625,-33.69140625,-32.71484375,-14.16015625,0.0
1685655600.5331278,-91.796875,-35.64453125,-42.48046875,-48.828125,0.0
1685655600.5370252,-73.73046875,-36.62109375,-34.1796875,-39.0625,0.0
1685655600.5409224,26.85546875,-39.0625,-33.69140625,-9.27734375,0.0
1685655600.5448198,57.12890625,-41.9921875,-32.71484375,15.13671875,0.0
1685655600.5487173,-66.40625,-45.41015625,-29.296875,-21.484375,0.0
1685655600.5526145,-91.30859375,-37.59765625,-36.62109375,-46.38671875,0.0
1685655600.5565119,-15.625,-27.34375,-31.25,-27.34375,0.0
1685655600.5604093,58.10546875,-28.80859375,-23.4375,8.30078125,0.0
1685655600.5643065,-43.45703125,-31.73828125,-34.1796875,2.44140625,0.0
1685655600.568204,-102.05078125,-34.1796875,-41.015625,-38.57421875,0.0
1685655600.5721014,-41.50390625,-37.59765625,-36.1328125,-35.64453125,0.0
1685655600.5759985,51.7578125,-35.64453125,-29.296875,5.37109375,0.0
1685655600.5800107,-2.9296875,-37.109375,-32.2265625,-9.27734375,0.0
1685655600.5839078,-92.28515625,-41.015625,-33.69140625,-38.57421875,0.0
1685655600.5878053,-59.5703125,-34.66796875,-33.69140625,-34.66796875,0.0
1685655600.5917027,34.1796875,-32.71484375,-33.69140625,-9.765625,0.0
1685655600.5956001,18.5546875,-36.1328125,-36.62109375,-3.90625,0.0
1685655600.5994973,-94.23828125,-37.59765625,-41.015625,-33.203125,0.0
1685655600.6033947,-83.0078125,-35.64453125,-34.1796875,-52.24609375,0.0
1685655600.6072922,15.13671875,-33.203125,-31.73828125,-34.1796875,0.0
1685655600.6111894,61.5234375,-32.71484375,-39.0625,-1.953125,0.0
1685655600.6150868,-64.453125,-31.25,-40.52734375,-17.08984375,0.0
1685655600.6189842,-100.5859375,-37.109375,-36.1328125,-34.66796875,0.0
1685655600.6228817,-7.32421875,-34.1796875,-31.25,-2.44140625,0.0
1685655600.6268942,76.171875,-26.85546875,-21.97265625,26.85546875,0.0
1685655600.6307917,-22.94921875,-28.3203125,-32.2265625,-7.32421875,0.0
1685655600.634689,-82.51953125,-31.25,-37.59765625,-28.80859375,0.0
1685655600.6385863,-29.296875,-25.87890625,-27.34375,-29.78515625,0.0
1685655600.6424837,60.05859375,-24.4140625,-31.73828125,-7.8125,0.0
1685655600.6463811,15.13671875,-23.4375,-35.15625,-0.9765625,0.0
1685655600.6502786,-80.56640625,-20.01953125,-30.2734375,-22.4609375,0.0
1685655600.6541758,-53.22265625,-20.5078125,-27.83203125,-16.11328125,0.0
1685655600.6580732,47.8515625,-22.94921875,-36.1328125,-0.48828125,0.0
1685655600.6619706,35.64453125,-23.92578125,-36.1328125,-1.953125,0.0
1685655600.665868,-85.44921875,-26.3671875,-24.90234375,-34.1796875,0.0
1685655600.6697652,-76.171875,-26.3671875,-27.34375,-52.734375,0.0
1685655600.673769,19.53125,-22.4609375,-32.71484375,-42.48046875,0.0
1685655600.6776662,67.87109375,-24.90234375,-29.78515625,-9.765625,0.0
1685655600.6815636,-52.24609375,-33.203125,-35.15625,-23.92578125,0.0
1685655600.685461,-78.61328125,-30.76171875,-43.45703125,-56.15234375,0.0
1685655600.6893585,-1.46484375,-29.78515625,-37.59765625,-38.0859375,0.0
1685655600.693256,84.47265625,-29.78515625,-44.921875,-4.8828125,0.0
1685655600.697153,-14.16015625,-35.15625,-46.875,-22.4609375,0.0
1685655600.7010505,-101.5625,-37.59765625,-42.48046875,-56.15234375,0.0
1685655600.704948,-53.7109375,-39.0625,-56.640625,-63.4765625,0.0
1685655600.7088454,41.9921875,-36.1328125,-49.31640625,-31.25,0.0
1685655600.7127428,-4.39453125,-32.2265625,-38.0859375,-25.390625,0.0
1685655600.71664,-104.98046875,-36.1328125,-41.9921875,-66.40625,0.0
1685655600.7206397,-71.2890625,-40.0390625,-39.55078125,-66.89453125,0.0
1685655600.724537,27.83203125,-41.015625,-39.55078125,-31.73828125,0.0
1685655600.7284343,26.85546875,-38.57421875,-36.62109375,-18.5546875,0.0
1685655600.7323318,-92.28515625,-38.57421875,-40.52734375,-41.50390625,0.0
1685655600.7362292,-96.19140625,-37.59765625,-38.57421875,-49.31640625,0.0
1685655600.7401266,-1.46484375,-32.71484375,-36.62109375,-30.2734375,0.0
1685655600.7440238,52.24609375,-24.90234375,-41.015625,-3.90625,0.0
1685655600.7479212,-64.94140625,-26.3671875,-45.41015625,-21.484375,0.0
1685655600.7518187,-97.16796875,-33.69140625,-41.015625,-49.8046875,0.0
1685655600.755716,-31.25,-38.57421875,-33.203125,-51.26953125,0.0
1685655600.7596135,48.33984375,-37.109375,-37.59765625,-6.34765625,0.0
1685655600.7635107,-36.1328125,-33.69140625,-37.109375,-8.7890625,0.0
1685655600.7675054,-108.3984375,-30.2734375,-31.25,-36.62109375,0.0
1685655600.7714028,-46.875,-28.80859375,-27.83203125,-21.484375,0.0
1685655600.7753003,53.7109375,-28.80859375,-28.80859375,6.34765625,0.0
1685655600.7791977,7.8125,-28.80859375,-35.15625,-14.16015625,0.0
1685655600.7830951,-99.12109375,-28.3203125,-35.64453125,-49.8046875,0.0
1685655600.7869923,-77.63671875,-31.73828125,-34.66796875,-48.33984375,0.0
1685655600.7908897,13.18359375,-29.296875,-35.64453125,-15.625,0.0
1685655600.7947872,18.06640625,-26.3671875,-37.109375,-7.8125,0.0
1685655600.7986846,-88.8671875,-25.390625,-34.66796875,-40.52734375,0.0
1685655600.802582,-83.984375,-25.87890625,-29.296875,-47.36328125,0.0
1685655600.8064795,1.953125,-26.85546875,-29.296875,-35.64453125,0.0
1685655600.810377,51.26953125,-25.87890625,-33.203125,-21.97265625,0.0
1685655600.814364,-64.94140625,-28.3203125,-41.9921875,-43.9453125,0.0
1685655600.8182614,-105.46875,-26.3671875,-40.0390625,-58.59375,0.0
1685655600.8221588,-36.1328125,-27.83203125,-32.71484375,-38.0859375,0.0
1685655600.8260562,50.78125,-32.2265625,-31.73828125,-7.8125,0.0
1685655600.8299537,-30.2734375,-31.25,-34.66796875,-17.578125,0.0
1685655600.833851,-102.05078125,-30.2734375,-35.64453125,-46.38671875,0.0
1685655600.8377485,-51.26953125,-36.62109375,-40.52734375,-40.0390625,0.0
1685655600.841646,42.48046875,-38.0859375,-45.41015625,-7.32421875,0.0
1685655600.8455431,4.8828125,-36.1328125,-46.38671875,-13.671875,0.0
1685655600.8494406,-102.5390625,-38.57421875,-41.9921875,-50.78125,0.0
1685655600.853338,-73.73046875,-36.1328125,-43.9453125,-45.41015625,0.0
1685655600.8572354,16.11328125,-27.83203125,-41.015625,-24.90234375,0.0
1685655600.8612192,23.4375,-26.3671875,-26.85546875,-15.625,0.0
1685655600.8651166,-94.7265625,-31.25,-39.0625,-42.96875,0.0
1685655600.869014,-104.4921875,-36.1328125,-44.43359375,-64.94140625,0.0
1685655600.8729115,-21.484375,-35.15625,-34.1796875,-31.25,0.0
1685655600.876809,40.0390625,-32.2265625,-34.1796875,4.39453125,0.0
1685655600.8807063,-62.98828125,-32.71484375,-38.0859375,-29.78515625,0.0
1685655600.8846037,-106.93359375,-35.15625,-45.41015625,-55.6640625,0.0
1685655600.888501,-47.8515625,-32.71484375,-47.8515625,-56.15234375,0.0
1685655600.8923984,48.828125,-30.2734375,-42.48046875,-26.85546875,0.0
1685655600.8962958,-24.90234375,-33.69140625,-39.0625,-40.52734375,0.0
1685655600.9001932,-105.95703125,-37.109375,-34.1796875,-62.98828125,0.0
1685655600.9040906,-48.828125,-26.85546875,-33.69140625,-39.55078125,0.0
1685655600.9080696,41.50390625,-17.578125,-37.109375,-15.625,0.0
1685655600.911967,14.6484375,-22.94921875,-40.0390625,-24.90234375,0.0
1685655600.9158645,-96.6796875,-30.76171875,-42.48046875,-57.6171875,0.0
1685655600.919762,-79.58984375,-27.34375,-40.0390625,-55.17578125,0.0
1685655600.9236593,28.3203125,-20.99609375,-35.64453125,-28.3203125,0.0
1685655600.9275568,43.9453125,-25.390625,-37.109375,-7.8125,0.0
1685655600.9314542,-84.47265625,-29.78515625,-38.57421875,-26.3671875,0.0
1685655600.9353516,-92.7734375,-28.3203125,-43.45703125,-42.48046875,0.0
1685655600.939249,-14.6484375,-30.2734375,-40.0390625,-42.48046875,0.0
1685655600.9431465,54.6875,-38.57421875,-38.0859375,-13.18359375,0.0
1685655600.947044,-49.8046875,-30.76171875,-44.43359375,-23.4375,0.0
1685655600.9509413,-100.09765625,-24.4140625,-34.66796875,-52.24609375,0.0
1685655600.9549525,-34.1796875,-34.1796875,-27.83203125,-39.55078125,0.0
1685655600.95885,52.734375,-35.64453125,-34.66796875,-6.8359375,0.0
1685655600.9627473,-15.625,-34.1796875,-36.62109375,-23.92578125,0.0
1685655600.9666448,-104.98046875,-40.0390625,-37.109375,-58.59375,0.0
1685655600.9705422,-57.6171875,-43.9453125,-42.96875,-41.50390625,0.0
1685655600.9744396,44.921875,-40.52734375,-41.50390625,-8.7890625,0.0
1685655600.978337,20.5078125,-38.57421875,-37.59765625,-12.20703125,0.0
1685655600.9822345,-90.33203125,-36.62109375,-30.2734375,-42.48046875,0.0
1685655600.986132,-76.66015625,-34.66796875,-26.3671875,-59.5703125,0.0
1685655600.9900293,15.13671875,-31.73828125,-26.85546875,-30.76171875,0.0
1685655600.9939268,47.36328125,-22.4609375,-20.01953125,6.34765625,0.0
1685655600.9978242,-71.77734375,-22.94921875,-27.34375,-27.83203125,0.0
1685655601.0018306,-100.09765625,-25.87890625,-32.71484375,-54.19921875,0.0
1685655601.005728,-22.94921875,-30.76171875,-29.296875,-25.87890625,0.0
1685655601.0096254,57.12890625,-33.69140625,-24.90234375,8.7890625,0.0
1685655601.0135229,-37.109375,-31.25,-25.390625,-13.18359375,0.0
1685655601.0174203,-91.30859375,-29.78515625,-32.2265625,-53.22265625,0.0
1685655601.0213175,-34.66796875,-27.34375,-42.96875,-49.31640625,0.0
1685655601.025215,55.17578125,-33.69140625,-35.64453125,-4.8828125,0.0
1685655601.0291123,-13.18359375,-37.109375,-28.80859375,-13.18359375,0.0
1685655601.0330098,-116.2109375,-37.59765625,-34.66796875,-44.43359375,0.0
1685655601.0369072,-72.265625,-36.62109375,-32.71484375,-38.0859375,0.0
1685655601.0408046,37.59765625,-30.76171875,-30.76171875,-20.01953125,0.0
1685655601.044702,31.73828125,-33.203125,-37.59765625,-9.27734375,0.0
1685655601.0487037,-81.0546875,-33.203125,-37.109375,-36.62109375,0.0
1685655601.052601,-74.70703125,-31.25,-32.71484375,-46.38671875,0.0
1685655601.0564985,23.92578125,-31.73828125,-31.25,-7.32421875,0.0
1685655601.060396,62.5,-26.85546875,-25.87890625,18.5546875,0.0
1685655601.0642934,-67.87109375,-30.2734375,-29.78515625,-28.3203125,0.0
1685655601.0681908,-96.6796875,-37.109375,-37.59765625,-55.17578125,0.0
1685655601.0720882,-5.859375,-30.76171875,-30.76171875,-25.87890625,0.0
1685655601.0759857,73.2421875,-30.2734375,-21.484375,-3.90625,0.0
1685655601.079883,-41.50390625,-38.0859375,-34.1796875,-14.6484375,0.0
1685655601.0837805,-106.93359375,-38.57421875,-36.62109375,-31.25,0.0
1685655601.087678,-49.8046875,-47.8515625,-34.66796875,-41.015625,0.0
1685655601.0915754,50.78125,-49.8046875,-32.2265625,-10.25390625,0.0
1685655601.0955732,6.8359375,-44.921875,-36.62109375,-4.8828125,0.0
1685655601.0994706,-91.796875,-43.45703125,-37.59765625,-45.41015625,0.0
1685655601.103368,-55.6640625,-41.9921875,-30.2734375,-43.9453125,0.0
1685655601.1072657,49.31640625,-36.62109375,-30.2734375,-9.765625,0.0
1685655601.1111631,37.59765625,-37.59765625,-31.73828125,1.953125,0.0
1685655601.1150606,-89.84375,-41.9921875,-36.1328125,-26.3671875,0.0
1685655601.118958,-86.42578125,-45.41015625,-35.15625,-44.921875,0.0
1685655601.1228554,4.8828125,-43.9453125,-34.1796875,-25.390625,0.0
1685655601.1267529,40.0390625,-45.41015625,-37.109375,2.9296875,0.0
1685655601.1306503,-84.47265625,-44.43359375,-39.0625,-29.78515625,0.0
1685655601.1345477,-117.67578125,-49.31640625,-44.43359375,-59.5703125,0.0
1685655601.1384451,-38.57421875,-49.31640625,-41.9921875,-41.015625,0.0
1685655601.1424367,53.7109375,-45.8984375,-35.15625,-14.6484375,0.0
1685655601.1463342,-41.9921875,-46.38671875,-35.15625,-30.2734375,0.0
1685655601.1502316,-110.3515625,-40.52734375,-39.55078125,-44.921875,0.0
1685655601.154129,-54.19921875,-35.64453125,-40.0390625,-44.921875,0.0
1685655601.1580265,43.9453125,-35.15625,-33.203125,-12.6953125,0.0
1685655601.161924,-0.48828125,-36.62109375,-37.59765625,-7.32421875,0.0
1685655601.1658213,-104.4921875,-40.0390625,-36.62109375,-48.828125,0.0
1685655601.1697187,-69.82421875,-36.62109375,-26.3671875,-50.29296875,0.0
1685655601.1736162,37.109375,-26.3671875,-22.4609375,-17.08984375,0.0
1685655601.1775138,27.83203125,-30.76171875,-29.78515625,-2.9296875,0.0
1685655601.1814113,-89.84375,-37.59765625,-33.203125,-20.5078125,0.0
1685655601.1853087,-77.1484375,-33.203125,-36.1328125,-41.9921875,0.0
1685655601.1892958,11.23046875,-34.1796875,-31.73828125,-26.85546875,0.0
1685655601.1931932,55.6640625,-34.1796875,-25.87890625,0.9765625,0.0
1685655601.1970906,-65.4296875,-32.71484375,-36.62109375,-30.76171875,0.0
1685655601.200988,-102.5390625,-30.2734375,-34.1796875,-54.19921875,0.0
1685655601.2048855,-30.2734375,-24.4140625,-26.3671875,-34.1796875,0.0
1685655601.208783,56.640625,-21.97265625,-36.1328125,1.953125,0.0
1685655601.2126803,-29.296875,-18.06640625,-37.109375,-15.13671875,0.0
1685655601.2165778,-104.00390625,-21.97265625,-32.2265625,-39.55078125,0.0
1685655601.2204754,-45.41015625,-29.296875,-28.80859375,-29.78515625,0.0
1685655601.2243729,51.26953125,-29.296875,-29.78515625,-4.8828125,0.0
1685655601.2282703,12.6953125,-25.390625,-29.296875,5.37109375,0.0
1685655601.2321677,-94.23828125,-28.3203125,-23.4375,-17.578125,0.0
1685655601.2361515,-73.2421875,-33.203125,-26.3671875,-24.90234375,0.0
1685655601.240049,24.90234375,-31.25,-31.73828125,-3.41796875,0.0
1685655601.2439463,37.59765625,-23.92578125,-31.25,7.32421875,0.0
1685655601.2478437,-86.42578125,-30.76171875,-34.66796875,-32.2265625,0.0
1685655601.2517412,-90.33203125,-40.0390625,-28.3203125,-52.24609375,0.0
1685655601.2556386,0.0,-29.78515625,-21.484375,-33.69140625,0.0
1685655601.259536,56.15234375,-28.80859375,-31.25,3.41796875,0.0
1685655601.2634335,-60.05859375,-30.2734375,-35.64453125,-13.671875,0.0
1685655601.2673311,-96.6796875,-27.34375,-27.83203125,-38.57421875,0.0
1685655601.2712286,-25.390625,-32.71484375,-27.83203125,-28.80859375,0.0
1685655601.275126,57.6171875,-29.78515625,-26.3671875,-0.48828125,0.0
1685655601.2790234,-25.390625,-28.3203125,-27.34375,-3.41796875,0.0
1685655601.2830033,-101.07421875,-34.66796875,-32.2265625,-34.66796875,0.0
1685655601.2869008,-48.33984375,-33.203125,-31.25,-45.41015625,0.0
1685655601.2907982,52.734375,-28.80859375,-31.25,-18.5546875,0.0
1685655601.2946956,13.671875,-24.90234375,-39.55078125,-12.20703125,0.0
1685655601.298593,-98.14453125,-24.4140625,-39.55078125,-43.9453125,0.0
1685655601.3024905,-74.21875,-29.78515625,-37.109375,-56.15234375,0.0
1685655601.306388,25.390625,-30.76171875,-40.52734375,-33.69140625,0.0
1685655601.3102856,40.52734375,-29.78515625,-28.80859375,-18.5546875,0.0
1685655601.314183,-89.84375,-37.59765625,-31.25,-41.50390625,0.0
1685655601.3180804,-99.12109375,-42.96875,-36.1328125,-52.734375,0.0
1685655601.3219779,-8.30078125,-39.0625,-31.25,-36.1328125,0.0
1685655601.3258753,60.546875,-35.15625,-33.69140625,-13.18359375,0.0
1685655601.3298862,-46.38671875,-35.64453125,-36.1328125,-32.2265625,0.0
1685655601.3337836,-89.35546875,-32.71484375,-34.1796875,-62.98828125,0.0
1685655601.337681,-22.94921875,-40.52734375,-43.9453125,-61.03515625,0.0
1685655601.3415787,65.4296875,-40.52734375,-41.015625,-19.53125,0.0
