time,TP9,AF7,AF8,TP10,Right AUX
1690406720.283224,133.7890625,-74.21875,-66.40625,118.65234375,0.0
1690406720.2871096,-86.9140625,-74.70703125,-60.546875,-85.44921875,0.0
1690406720.290995,-236.81640625,-87.890625,-49.8046875,-230.95703125,0.0
1690406720.2948802,-67.87109375,-77.63671875,-49.8046875,-71.2890625,0.0
1690406720.2987654,136.23046875,-69.3359375,-58.10546875,134.765625,0.0
1690406720.3026507,-20.01953125,-95.21484375,-59.5703125,10.25390625,0.0
1690406720.3065362,-227.05078125,-98.14453125,-59.08203125,-213.37890625,0.0
1690406720.3104215,-126.46484375,-78.61328125,-61.03515625,-159.1796875,0.0
1690406720.3143067,114.2578125,-62.5,-58.59375,87.40234375,0.0
1690406720.318192,61.5234375,-69.3359375,-58.10546875,81.0546875,0.0
1690406720.3220773,-174.31640625,-83.984375,-59.5703125,-153.80859375,0.0
1690406720.3259628,-185.05859375,-80.078125,-56.640625,-214.35546875,0.0
1690406720.330099,47.36328125,-73.2421875,-54.19921875,1.46484375,0.0
1690406720.3339846,108.3984375,-78.125,-54.6875,108.88671875,0.0
1690406720.33787,-131.34765625,-96.19140625,-51.7578125,-106.4453125,0.0
1690406720.3417552,-219.7265625,-96.19140625,-59.08203125,-220.703125,0.0
1690406720.3456407,-3.41796875,-79.58984375,-65.4296875,-22.4609375,0.0
1690406720.349526,147.94921875,-75.1953125,-56.15234375,146.484375,0.0
1690406720.3534112,-62.98828125,-83.49609375,-46.875,-40.52734375,0.0
1690406720.3572967,-230.46875,-92.7734375,-46.875,-212.890625,0.0
1690406720.361182,-73.2421875,-89.35546875,-54.6875,-83.0078125,0.0
1690406720.3650672,137.6953125,-72.75390625,-64.453125,118.1640625,0.0
1690406720.3689528,5.37109375,-83.984375,-62.5,33.69140625,0.0
1690406720.372838,-212.40234375,-98.14453125,-58.59375,-187.01171875,0.0
1690406720.3769631,-149.4140625,-97.16796875,-67.87109375,-166.50390625,0.0
1690406720.3808486,93.75,-90.33203125,-80.56640625,66.89453125,0.0
1690406720.384734,75.68359375,-104.00390625,-78.61328125,92.7734375,0.0
1690406720.3886194,-171.38671875,-114.74609375,-73.2421875,-156.25,0.0
1690406720.3925047,-195.80078125,-89.35546875,-70.3125,-211.42578125,0.0
1690406720.3963902,43.9453125,-82.03125,-65.91796875,31.73828125,0.0
1690406720.4002755,112.3046875,-100.09765625,-65.91796875,121.58203125,0.0
1690406720.404161,-117.1875,-112.79296875,-64.94140625,-85.9375,0.0
1690406720.4080462,-223.14453125,-102.5390625,-65.4296875,-215.8203125,0.0
1690406720.4119318,-22.4609375,-93.26171875,-68.84765625,-44.921875,0.0
1690406720.415817,139.16015625,-87.40234375,-71.77734375,138.671875,0.0
1690406720.4197025,-50.78125,-90.8203125,-70.3125,-30.2734375,0.0
1690406720.4238176,-228.02734375,-97.16796875,-72.75390625,-228.02734375,0.0
1690406720.4277031,-93.75,-78.61328125,-80.078125,-106.93359375,0.0
1690406720.4315886,139.6484375,-55.6640625,-75.68359375,137.6953125,0.0
1690406720.435474,35.64453125,-70.80078125,-70.80078125,46.38671875,0.0
1690406720.4393594,-191.40625,-102.05078125,-68.359375,-168.45703125,0.0
1690406720.443245,-144.53125,-101.5625,-64.94140625,-129.8828125,0.0
1690406720.4471302,86.9140625,-79.58984375,-62.5,97.65625,0.0
1690406720.4510157,97.16796875,-84.47265625,-55.17578125,130.859375,0.0
1690406720.4549012,-134.765625,-95.703125,-58.10546875,-110.3515625,0.0
1690406720.4587865,-176.7578125,-89.84375,-63.4765625,-187.5,0.0
1690406720.462672,62.5,-77.1484375,-65.91796875,34.1796875,0.0
1690406720.4665575,172.36328125,-68.359375,-73.2421875,160.64453125,0.0
1690406720.4706633,-55.6640625,-77.1484375,-71.77734375,-63.96484375,0.0
1690406720.4745488,-189.453125,-92.28515625,-68.359375,-209.47265625,0.0
1690406720.4784343,-9.27734375,-74.70703125,-73.2421875,-29.296875,0.0
1690406720.4823198,176.7578125,-50.78125,-75.1953125,163.57421875,0.0
1690406720.486205,-11.71875,-71.77734375,-65.4296875,7.32421875,0.0
1690406720.4900906,-211.9140625,-87.890625,-61.5234375,-201.66015625,0.0
1690406720.493976,-89.84375,-75.68359375,-74.21875,-104.98046875,0.0
1690406720.4978616,138.18359375,-50.78125,-83.0078125,127.9296875,0.0
1690406720.5017471,54.19921875,-57.6171875,-79.58984375,59.5703125,0.0
1690406720.5056326,-175.29296875,-79.58984375,-66.89453125,-161.1328125,0.0
1690406720.509518,-163.0859375,-82.03125,-61.5234375,-164.55078125,0.0
1690406720.5134034,72.265625,-59.08203125,-68.84765625,55.17578125,0.0
1690406720.5174992,100.5859375,-53.22265625,-68.359375,126.46484375,0.0
1690406720.5213847,-146.97265625,-90.8203125,-59.5703125,-109.86328125,0.0
1690406720.5252702,-222.65625,-99.12109375,-59.08203125,-213.37890625,0.0
1690406720.5291555,2.9296875,-73.73046875,-70.3125,0.48828125,0.0
1690406720.533041,114.74609375,-73.2421875,-70.80078125,129.8828125,0.0
1690406720.5369265,-107.421875,-90.33203125,-58.59375,-68.84765625,0.0
1690406720.540812,-248.53515625,-87.890625,-54.19921875,-226.07421875,0.0
1690406720.5446975,-69.3359375,-74.21875,-67.3828125,-72.75390625,0.0
1690406720.548583,136.23046875,-61.5234375,-76.171875,131.8359375,0.0
1690406720.5524685,-27.34375,-83.0078125,-61.5234375,5.37109375,0.0
1690406720.556354,-224.609375,-90.8203125,-53.22265625,-198.73046875,0.0
1690406720.5602396,-121.09375,-51.26953125,-59.08203125,-134.27734375,0.0
1690406720.5644052,117.1875,-34.1796875,-55.6640625,99.12109375,0.0
1690406720.5682907,56.640625,-62.01171875,-59.5703125,67.3828125,0.0
1690406720.5721762,-186.03515625,-81.0546875,-64.453125,-172.8515625,0.0
1690406720.5760617,-199.70703125,-75.1953125,-64.94140625,-200.68359375,0.0
1690406720.5799472,35.15625,-67.87109375,-67.87109375,29.78515625,0.0
1690406720.5838327,106.4453125,-70.3125,-65.91796875,108.88671875,0.0
1690406720.5877185,-124.0234375,-82.51953125,-66.40625,-116.2109375,0.0
1690406720.591604,-211.9140625,-80.078125,-75.1953125,-234.375,0.0
1690406720.5954895,4.39453125,-58.59375,-77.1484375,-35.15625,0.0
1690406720.599375,156.73828125,-41.015625,-74.21875,137.20703125,0.0
1690406720.6032605,-62.01171875,-55.17578125,-70.80078125,-68.84765625,0.0
1690406720.607146,-220.703125,-69.82421875,-68.359375,-237.79296875,0.0
1690406720.6113024,-43.9453125,-57.6171875,-66.89453125,-81.0546875,0.0
1690406720.6151881,164.55078125,-34.1796875,-70.3125,120.1171875,0.0
1690406720.6190736,27.34375,-35.15625,-72.75390625,15.625,0.0
1690406720.6229591,-176.7578125,-55.17578125,-67.3828125,-193.359375,0.0
1690406720.626845,-86.42578125,-57.12890625,-65.4296875,-136.23046875,0.0
1690406720.6307304,156.25,-41.015625,-67.87109375,102.5390625,0.0
1690406720.634616,110.3515625,-39.55078125,-76.66015625,96.6796875,0.0
1690406720.6385016,-122.0703125,-57.6171875,-85.9375,-142.578125,0.0
1690406720.6423872,-149.90234375,-63.96484375,-80.56640625,-201.171875,0.0
1690406720.6462727,81.0546875,-50.29296875,-79.58984375,23.4375,0.0
1690406720.6501582,152.34375,-48.33984375,-78.125,117.67578125,0.0
1690406720.654044,-80.56640625,-56.640625,-65.4296875,-91.30859375,0.0
1690406720.6581893,-182.12890625,-60.05859375,-65.91796875,-231.4453125,0.0
1690406720.6620748,17.08984375,-52.24609375,-72.265625,-52.24609375,0.0
1690406720.6659606,177.734375,-47.36328125,-72.265625,149.4140625,0.0
1690406720.669846,-27.83203125,-67.3828125,-64.94140625,-36.62109375,0.0
1690406720.6737318,-200.1953125,-75.68359375,-60.546875,-229.00390625,0.0
1690406720.6776173,-56.15234375,-48.828125,-65.4296875,-92.28515625,0.0
1690406720.681503,156.73828125,-41.9921875,-78.61328125,136.71875,0.0
1690406720.6853886,39.55078125,-68.359375,-71.77734375,43.45703125,0.0
1690406720.6892743,-183.10546875,-72.265625,-51.7578125,-189.94140625,0.0
1690406720.6931598,-133.7890625,-53.7109375,-54.19921875,-165.52734375,0.0
1690406720.6970453,108.88671875,-41.9921875,-63.96484375,69.3359375,0.0
1690406720.700931,99.609375,-54.19921875,-61.5234375,85.9375,0.0
1690406720.7050667,-140.625,-65.4296875,-59.5703125,-143.06640625,0.0
1690406720.7089524,-182.12890625,-57.6171875,-61.5234375,-210.9375,0.0
1690406720.7128382,51.7578125,-47.8515625,-70.3125,18.06640625,0.0
1690406720.7167237,155.76171875,-56.15234375,-72.75390625,148.4375,0.0
1690406720.7206094,-81.0546875,-70.3125,-68.84765625,-76.171875,0.0
1690406720.7244952,-205.078125,-65.4296875,-71.2890625,-220.21484375,0.0
1690406720.7283807,-8.7890625,-54.19921875,-66.40625,-35.64453125,0.0
1690406720.7322664,160.64453125,-57.12890625,-61.5234375,152.34375,0.0
1690406720.7361522,-38.0859375,-61.03515625,-55.17578125,-20.01953125,0.0
1690406720.7400377,-227.5390625,-51.26953125,-51.7578125,-224.609375,0.0
1690406720.7439234,-96.19140625,-56.640625,-59.08203125,-110.83984375,0.0
1690406720.7478092,130.37109375,-57.12890625,-61.5234375,109.86328125,0.0
1690406720.7519343,19.53125,-66.40625,-57.12890625,44.43359375,0.0
1690406720.75582,-208.0078125,-73.2421875,-67.87109375,-178.22265625,0.0
1690406720.7597055,-174.8046875,-56.640625,-70.80078125,-175.29296875,0.0
1690406720.7635913,58.10546875,-41.015625,-71.2890625,62.01171875,0.0
1690406720.767477,77.63671875,-48.33984375,-69.3359375,107.421875,0.0
1690406720.7713628,-163.57421875,-67.87109375,-52.734375,-139.6484375,0.0
1690406720.7752485,-232.91015625,-83.0078125,-46.875,-234.375,0.0
1690406720.779134,-10.7421875,-75.1953125,-49.31640625,-8.7890625,0.0
1690406720.7830198,110.83984375,-55.17578125,-54.19921875,129.8828125,0.0
1690406720.7869055,-116.2109375,-64.94140625,-61.5234375,-86.42578125,0.0
1690406720.7907913,-253.41796875,-83.49609375,-62.01171875,-236.81640625,0.0
1690406720.794677,-73.2421875,-74.70703125,-64.94140625,-66.89453125,0.0
1690406720.7987914,119.62890625,-61.5234375,-69.3359375,114.74609375,0.0
1690406720.8026772,-40.52734375,-69.3359375,-58.10546875,-24.90234375,0.0
1690406720.806563,-235.83984375,-80.078125,-48.33984375,-200.68359375,0.0
1690406720.8104486,-128.90625,-72.75390625,-51.7578125,-115.72265625,0.0
1690406720.8143344,100.5859375,-58.59375,-57.6171875,109.86328125,0.0
1690406720.8182201,33.203125,-70.80078125,-62.01171875,67.3828125,0.0
1690406720.822106,-199.21875,-78.125,-59.08203125,-165.52734375,0.0
1690406720.8259916,-191.89453125,-77.63671875,-57.12890625,-178.7109375,0.0
1690406720.8298774,57.12890625,-56.15234375,-63.4765625,62.01171875,0.0
1690406720.833763,113.28125,-42.48046875,-63.4765625,136.23046875,0.0
1690406720.8376486,-120.1171875,-72.75390625,-55.6640625,-98.6328125,0.0
1690406720.8415344,-200.68359375,-81.0546875,-50.78125,-199.70703125,0.0
1690406720.845638,15.625,-48.33984375,-57.12890625,6.34765625,0.0
1690406720.8495238,154.78515625,-36.62109375,-58.59375,148.92578125,0.0
1690406720.8534095,-66.40625,-53.22265625,-56.15234375,-53.7109375,0.0
1690406720.8572953,-218.75,-61.03515625,-60.546875,-220.703125,0.0
1690406720.861181,-47.36328125,-50.29296875,-68.359375,-68.84765625,0.0
1690406720.8650668,147.94921875,-40.0390625,-64.453125,135.25390625,0.0
1690406720.8689528,-11.23046875,-63.96484375,-51.7578125,6.34765625,0.0
1690406720.8728385,-209.9609375,-69.3359375,-59.08203125,-198.73046875,0.0
1690406720.8767242,-105.95703125,-45.41015625,-60.05859375,-136.23046875,0.0
1690406720.88061,119.140625,-42.96875,-54.19921875,98.14453125,0.0
1690406720.8844957,71.2890625,-54.19921875,-54.19921875,87.40234375,0.0
1690406720.8883815,-165.0390625,-60.546875,-55.17578125,-133.7890625,0.0
1690406720.8924768,-187.01171875,-58.59375,-60.05859375,-176.7578125,0.0
1690406720.8963628,47.8515625,-46.38671875,-66.89453125,42.48046875,0.0
1690406720.9002485,118.1640625,-44.43359375,-68.84765625,128.90625,0.0
1690406720.9041343,-120.1171875,-64.94140625,-68.84765625,-105.46875,0.0
1690406720.90802,-204.1015625,-79.58984375,-68.359375,-216.796875,0.0
1690406720.911906,20.99609375,-53.22265625,-68.84765625,-6.34765625,0.0
1690406720.9157917,156.25,-26.3671875,-57.6171875,162.109375,0.0
1690406720.9196775,-51.26953125,-48.828125,-48.828125,-34.66796875,0.0
1690406720.9235632,-217.28515625,-79.1015625,-53.22265625,-224.609375,0.0
1690406720.9274492,-67.3828125,-56.640625,-57.6171875,-91.30859375,0.0
1690406720.931335,158.203125,-38.0859375,-58.59375,132.8125,0.0
1690406720.9352207,18.5546875,-58.59375,-59.5703125,24.90234375,0.0
1690406720.9393852,-203.125,-64.453125,-69.3359375,-201.66015625,0.0
1690406720.943271,-131.34765625,-51.7578125,-70.3125,-157.71484375,0.0
1690406720.947157,112.79296875,-31.25,-68.359375,73.2421875,0.0
1690406720.9510427,100.5859375,-34.1796875,-67.87109375,67.3828125,0.0
1690406720.9549286,-145.01953125,-60.546875,-62.5,-154.78515625,0.0
1690406720.9588144,-187.5,-62.01171875,-65.4296875,-200.68359375,0.0
1690406720.9627001,54.19921875,-36.62109375,-63.96484375,7.8125,0.0
1690406720.966586,145.01953125,-45.8984375,-61.5234375,117.1875,0.0
1690406720.9704719,-97.65625,-70.3125,-63.96484375,-100.09765625,0.0
1690406720.9743578,-220.703125,-61.03515625,-61.5234375,-236.328125,0.0
1690406720.9782436,-15.13671875,-36.1328125,-63.96484375,-54.6875,0.0
1690406720.9821296,164.55078125,-25.87890625,-64.453125,138.671875,0.0
1690406720.986283,-33.69140625,-38.57421875,-56.640625,-27.83203125,0.0
1690406720.9901688,-220.21484375,-57.6171875,-57.12890625,-220.21484375,0.0
1690406720.9940548,-75.1953125,-60.05859375,-62.5,-103.02734375,0.0
1690406720.9979405,148.4375,-49.31640625,-64.94140625,130.37109375,0.0
1690406721.0018265,30.2734375,-59.08203125,-63.96484375,47.36328125,0.0
1690406721.0057125,-199.70703125,-72.265625,-62.01171875,-183.59375,0.0
1690406721.0095983,-159.1796875,-62.5,-63.96484375,-161.1328125,0.0
1690406721.0134842,97.16796875,-38.57421875,-62.5,82.03125,0.0
1690406721.01737,104.00390625,-46.875,-56.15234375,111.328125,0.0
1690406721.021256,-148.4375,-55.6640625,-55.17578125,-129.39453125,0.0
1690406721.025142,-205.56640625,-41.9921875,-53.7109375,-205.078125,0.0
1690406721.0290277,18.06640625,-46.38671875,-58.10546875,4.8828125,0.0
1690406721.0331705,124.0234375,-49.31640625,-68.84765625,139.16015625,0.0
1690406721.0370564,-98.6328125,-55.6640625,-61.03515625,-76.171875,0.0
1690406721.0409424,-225.09765625,-58.10546875,-52.734375,-233.3984375,0.0
1690406721.0448282,-34.66796875,-41.50390625,-57.12890625,-51.26953125,0.0
1690406721.0487142,154.296875,-42.96875,-55.6640625,147.94921875,0.0
1690406721.0526001,-26.85546875,-58.59375,-55.6640625,-10.7421875,0.0
1690406721.0564861,-215.33203125,-64.453125,-59.08203125,-206.54296875,0.0
1690406721.0603719,-97.16796875,-54.19921875,-62.98828125,-112.3046875,0.0
1690406721.0642579,131.8359375,-32.71484375,-67.3828125,118.1640625,0.0
1690406721.0681438,44.921875,-37.109375,-62.5,74.21875,0.0
1690406721.0720298,-187.01171875,-60.05859375,-59.5703125,-162.109375,0.0
1690406721.0759156,-165.52734375,-60.05859375,-59.5703125,-177.24609375,0.0
1690406721.0800486,84.9609375,-29.296875,-59.08203125,59.5703125,0.0
1690406721.0839343,125.0,-28.80859375,-57.6171875,106.4453125,0.0
1690406721.0878203,-114.74609375,-52.734375,-57.6171875,-117.1875,0.0
1690406721.0917063,-185.546875,-43.9453125,-52.734375,-188.96484375,0.0
1690406721.0955923,41.50390625,-24.90234375,-53.7109375,13.671875,0.0
1690406721.0994782,170.41015625,-30.2734375,-60.05859375,158.69140625,0.0
1690406721.1033642,-63.96484375,-42.96875,-60.05859375,-41.015625,0.0
1690406721.1072502,-214.84375,-44.43359375,-62.01171875,-207.51953125,0.0
1690406721.1111362,-34.66796875,-38.57421875,-64.453125,-56.15234375,0.0
1690406721.1150222,161.62109375,-36.1328125,-67.87109375,145.5078125,0.0
1690406721.1189082,-16.11328125,-53.22265625,-64.453125,-7.8125,0.0
1690406721.1227942,-218.75,-62.98828125,-56.640625,-215.33203125,0.0
1690406721.1269143,-115.72265625,-50.78125,-58.10546875,-124.0234375,0.0
1690406721.1308002,121.58203125,-41.50390625,-60.05859375,107.421875,0.0
1690406721.1346862,60.546875,-47.8515625,-58.59375,77.63671875,0.0
1690406721.1385722,-178.7109375,-54.6875,-58.59375,-156.73828125,0.0
1690406721.1424582,-183.59375,-54.19921875,-57.6171875,-192.3828125,0.0
1690406721.1463444,54.19921875,-46.875,-61.03515625,29.296875,0.0
1690406721.1502304,104.4921875,-42.48046875,-60.546875,113.76953125,0.0
1690406721.1541164,-141.6015625,-68.359375,-55.6640625,-105.95703125,0.0
1690406721.1580024,-226.5625,-73.73046875,-54.6875,-218.75,0.0
1690406721.1618884,-5.859375,-53.7109375,-59.08203125,-24.90234375,0.0
1690406721.1657743,140.13671875,-47.36328125,-62.01171875,135.25390625,0.0
1690406721.1696603,-79.58984375,-50.78125,-54.19921875,-43.9453125,0.0
1690406721.17377,-234.86328125,-43.45703125,-51.26953125,-221.6796875,0.0
1690406721.177656,-65.4296875,-32.2265625,-48.828125,-80.078125,0.0
1690406721.181542,138.671875,-33.69140625,-47.36328125,139.16015625,0.0
1690406721.185428,-15.13671875,-44.43359375,-47.36328125,17.578125,0.0
1690406721.1893141,-210.44921875,-54.19921875,-47.36328125,-188.4765625,0.0
1690406721.1932,-129.8828125,-52.734375,-56.15234375,-135.25390625,0.0
1690406721.197086,103.515625,-44.921875,-56.640625,103.02734375,0.0
1690406721.200972,85.9375,-44.921875,-48.828125,107.421875,0.0
1690406721.2048583,-149.90234375,-54.6875,-53.22265625,-132.32421875,0.0
1690406721.2087443,-174.8046875,-54.19921875,-58.10546875,-187.5,0.0
1690406721.2126303,67.87109375,-33.69140625,-56.15234375,27.83203125,0.0
1690406721.2165163,153.3203125,-25.390625,-50.29296875,136.23046875,0.0
1690406721.2206194,-98.6328125,-41.015625,-51.26953125,-83.0078125,0.0
1690406721.2245054,-208.0078125,-59.5703125,-53.7109375,-210.44921875,0.0
1690406721.2283916,6.34765625,-46.38671875,-53.22265625,-14.16015625,0.0
1690406721.2322776,168.45703125,-26.3671875,-51.7578125,156.25,0.0
1690406721.2361636,-34.66796875,-37.109375,-54.19921875,-40.0390625,0.0
1690406721.2400498,-205.56640625,-44.921875,-57.12890625,-227.05078125,0.0
1690406721.2439358,-56.640625,-51.26953125,-50.29296875,-98.6328125,0.0
1690406721.2478218,161.1328125,-45.41015625,-47.8515625,125.9765625,0.0
1690406721.251708,35.15625,-33.69140625,-48.828125,54.6875,0.0
1690406721.255594,-187.01171875,-41.50390625,-44.43359375,-163.0859375,0.0
1690406721.2594802,-133.30078125,-34.1796875,-40.52734375,-163.0859375,0.0
1690406721.2633662,104.98046875,-11.23046875,-42.96875,65.4296875,0.0
1690406721.2674594,93.75,-29.296875,-43.9453125,113.76953125,0.0
1690406721.2713456,-145.5078125,-62.98828125,-40.52734375,-116.2109375,0.0
1690406721.2752316,-189.94140625,-45.8984375,-41.50390625,-189.94140625,0.0
1690406721.2791178,31.73828125,-17.08984375,-53.7109375,23.92578125,0.0
1690406721.2830038,137.20703125,-13.18359375,-55.6640625,145.99609375,0.0
1690406721.28689,-97.16796875,-40.52734375,-48.33984375,-72.265625,0.0
1690406721.290776,-229.00390625,-54.19921875,-51.7578125,-222.65625,0.0
1690406721.2946622,-29.296875,-32.2265625,-62.5,-52.24609375,0.0
1690406721.2985482,150.390625,-26.3671875,-66.40625,150.390625,0.0
1690406721.3024344,-41.9921875,-40.0390625,-62.01171875,-17.578125,0.0
1690406721.3063207,-228.515625,-36.62109375,-59.5703125,-222.65625,0.0
1690406721.3102067,-91.30859375,-43.9453125,-61.5234375,-122.0703125,0.0
1690406721.3143682,140.13671875,-43.45703125,-66.89453125,111.328125,0.0
1690406721.3182545,43.9453125,-43.45703125,-63.96484375,52.24609375,0.0
1690406721.3221405,-193.84765625,-40.52734375,-60.05859375,-187.98828125,0.0
1690406721.3260267,-166.015625,-32.71484375,-55.17578125,-188.4765625,0.0
1690406721.329913,83.984375,-43.45703125,-58.10546875,49.31640625,0.0
1690406721.333799,102.05078125,-38.0859375,-61.03515625,90.8203125,0.0
1690406721.337685,-145.5078125,-25.87890625,-54.19921875,-136.71875,0.0
1690406721.3415713,-214.35546875,-22.94921875,-54.19921875,-228.02734375,0.0
1690406721.3454573,16.11328125,-21.97265625,-60.546875,-24.4140625,0.0
1690406721.3493435,144.53125,-14.6484375,-58.10546875,125.48828125,0.0
1690406721.3532298,-84.9609375,-20.5078125,-49.8046875,-62.98828125,0.0
1690406721.3571157,-225.5859375,-33.69140625,-50.29296875,-208.49609375,0.0
1690406721.3612666,-37.59765625,-27.34375,-55.6640625,-47.36328125,0.0
1690406721.3651528,161.1328125,-23.4375,-53.7109375,149.90234375,0.0
1690406721.369039,-23.92578125,-41.015625,-45.8984375,4.39453125,0.0
1690406721.3729253,-222.65625,-48.33984375,-39.55078125,-201.171875,0.0
1690406721.3768113,-103.515625,-41.015625,-45.41015625,-128.90625,0.0
1690406721.3806975,127.44140625,-34.1796875,-54.19921875,108.3984375,0.0
1690406721.3845837,55.17578125,-35.15625,-58.10546875,75.1953125,0.0
1690406721.38847,-182.6171875,-46.38671875,-61.03515625,-161.62109375,0.0
1690406721.3923562,-187.98828125,-47.8515625,-51.26953125,-183.59375,0.0
1690406721.3962424,49.8046875,-40.0390625,-48.828125,55.6640625,0.0
1690406721.4001284,111.328125,-42.48046875,-53.22265625,128.90625,0.0
1690406721.4040146,-129.39453125,-39.0625,-47.36328125,-111.328125,0.0
1690406721.408155,-219.23828125,-38.0859375,-52.734375,-215.8203125,0.0
1690406721.4120412,2.9296875,-26.85546875,-55.17578125,-12.20703125,0.0
1690406721.4159274,139.6484375,-22.94921875,-56.640625,138.18359375,0.0
1690406721.4198136,-80.56640625,-40.0390625,-52.734375,-51.26953125,0.0
1690406721.4236999,-226.5625,-43.45703125,-45.41015625,-215.33203125,0.0
1690406721.427586,-52.734375,-41.50390625,-50.78125,-68.359375,0.0
1690406721.4314723,148.4375,-30.2734375,-55.17578125,136.71875,0.0
1690406721.4353585,-1.46484375,-36.62109375,-56.15234375,17.578125,0.0
1690406721.4392447,-209.47265625,-51.26953125,-56.640625,-198.2421875,0.0
1690406721.443131,-124.0234375,-34.66796875,-51.26953125,-140.13671875,0.0
1690406721.4470172,123.53515625,-20.5078125,-51.7578125,94.7265625,0.0
1690406721.4509034,73.73046875,-45.41015625,-55.17578125,70.3125,0.0
1690406721.4550369,-166.50390625,-55.17578125,-50.29296875,-157.2265625,0.0
1690406721.458923,-168.45703125,-34.1796875,-50.29296875,-194.82421875,0.0
1690406721.4628096,75.1953125,-21.484375,-61.03515625,30.2734375,0.0
1690406721.4666958,145.5078125,-37.109375,-61.03515625,138.671875,0.0
1690406721.470582,-91.796875,-65.4296875,-56.15234375,-87.890625,0.0
1690406721.4744682,-184.08203125,-68.359375,-56.15234375,-213.8671875,0.0
1690406721.4783545,39.0625,-27.83203125,-51.7578125,-5.37109375,0.0
1690406721.4822407,187.5,-18.06640625,-57.6171875,163.57421875,0.0
1690406721.4861271,-30.76171875,-46.875,-55.6640625,-32.71484375,0.0
1690406721.4900134,-185.546875,-50.29296875,-50.78125,-211.42578125,0.0
1690406721.4938996,-29.78515625,-33.203125,-57.6171875,-79.1015625,0.0
1690406721.4977858,166.50390625,-23.92578125,-57.6171875,143.5546875,0.0
1690406721.5019865,24.4140625,-35.15625,-60.546875,36.62109375,0.0
1690406721.5058727,-180.6640625,-45.41015625,-61.03515625,-198.2421875,0.0
1690406721.509759,-111.81640625,-46.875,-48.33984375,-142.578125,0.0
1690406721.5136454,145.5078125,-39.0625,-48.828125,120.1171875,0.0
1690406721.5175316,120.60546875,-35.15625,-58.10546875,120.60546875,0.0
1690406721.521418,-159.66796875,-41.50390625,-63.4765625,-152.34375,0.0
1690406721.5253043,-182.12890625,-40.52734375,-66.40625,-213.37890625,0.0
1690406721.5291905,71.77734375,-23.92578125,-68.84765625,34.1796875,0.0
1690406721.533077,160.15625,-15.625,-73.2421875,154.78515625,0.0
1690406721.5369632,-65.91796875,-33.69140625,-65.91796875,-70.3125,0.0
1690406721.5408494,-194.3359375,-42.96875,-55.17578125,-210.44921875,0.0
1690406721.544736,-0.48828125,-29.296875,-54.19921875,-26.85546875,0.0
1690406721.5488439,175.29296875,-22.4609375,-59.5703125,154.296875,0.0
1690406721.55273,-24.90234375,-35.15625,-61.03515625,-36.1328125,0.0
1690406721.5566165,-199.21875,-34.66796875,-57.12890625,-209.47265625,0.0
1690406721.560503,-57.12890625,-14.6484375,-58.59375,-75.1953125,0.0
1690406721.5643892,168.45703125,-12.20703125,-62.5,128.41796875,0.0
1690406721.5682757,58.59375,-32.71484375,-60.546875,57.12890625,0.0
1690406721.572162,-164.55078125,-36.1328125,-53.7109375,-154.78515625,0.0
1690406721.5760484,-122.55859375,-28.3203125,-52.24609375,-146.484375,0.0
1690406721.5799346,115.234375,-20.01953125,-67.3828125,74.21875,0.0
1690406721.583821,120.1171875,-26.85546875,-75.1953125,106.4453125,0.0
1690406721.5877073,-114.74609375,-48.33984375,-71.2890625,-120.1171875,0.0
1690406721.5915937,-172.8515625,-43.45703125,-65.91796875,-198.73046875,0.0
1690406721.595693,52.734375,-22.4609375,-64.94140625,3.41796875,0.0
1690406721.5995796,154.78515625,-14.16015625,-55.17578125,133.7890625,0.0
1690406721.603466,-84.9609375,-31.73828125,-53.7109375,-71.77734375,0.0
1690406721.6073523,-208.49609375,-34.66796875,-56.15234375,-210.9375,0.0
1690406721.6112387,-19.53125,-26.3671875,-52.734375,-33.203125,0.0
1690406721.6151252,149.90234375,-26.3671875,-52.734375,142.08984375,0.0
1690406721.6190114,-45.41015625,-43.45703125,-51.7578125,-2.44140625,0.0
1690406721.6228979,-216.796875,-51.26953125,-52.24609375,-193.359375,0.0
1690406721.6267843,-102.05078125,-35.15625,-54.6875,-118.65234375,0.0
1690406721.6306705,113.76953125,-34.66796875,-57.6171875,99.12109375,0.0
1690406721.634557,26.85546875,-40.52734375,-57.12890625,61.03515625,0.0
1690406721.6384435,-197.265625,-49.8046875,-57.6171875,-155.76171875,0.0
1690406721.6425335,-172.36328125,-51.7578125,-51.26953125,-178.22265625,0.0
1690406721.64642,63.4765625,-32.71484375,-43.9453125,52.734375,0.0
1690406721.6503065,93.26171875,-30.76171875,-42.96875,129.8828125,0.0
1690406721.6541927,-144.53125,-53.7109375,-43.9453125,-92.7734375,0.0
1690406721.6580791,-216.30859375,-55.6640625,-42.96875,-192.3828125,0.0
1690406721.6619656,6.34765625,-40.0390625,-38.0859375,15.13671875,0.0
1690406721.665852,130.37109375,-48.33984375,-43.45703125,160.64453125,0.0
1690406721.6697385,-83.0078125,-62.98828125,-42.96875,-51.7578125,0.0
1690406721.6736248,-216.30859375,-62.5,-32.2265625,-212.890625,0.0
1690406721.6775112,-30.76171875,-45.41015625,-37.59765625,-56.640625,0.0
1690406721.6813977,157.71484375,-25.87890625,-44.921875,156.73828125,0.0
1690406721.6852841,-17.578125,-29.296875,-38.57421875,31.73828125,0.0
1690406721.689441,-208.984375,-39.55078125,-32.71484375,-182.6171875,0.0
1690406721.6933274,-95.21484375,-29.78515625,-34.1796875,-128.41796875,0.0
1690406721.697214,146.97265625,-10.7421875,-41.50390625,100.5859375,0.0
1690406721.7011003,83.0078125,-16.6015625,-42.48046875,80.078125,0.0
1690406721.7049868,-145.01953125,-32.71484375,-43.9453125,-158.69140625,0.0
1690406721.7088733,-139.6484375,-26.3671875,-50.78125,-194.82421875,0.0
1690406721.7127597,97.65625,-13.18359375,-50.29296875,32.71484375,0.0
1690406721.7166462,149.4140625,-12.6953125,-51.26953125,120.1171875,0.0
1690406721.7205324,-88.8671875,-35.15625,-45.41015625,-96.19140625,0.0
1690406721.7244189,-180.6640625,-43.9453125,-44.921875,-221.6796875,0.0
1690406721.7283053,41.9921875,-3.41796875,-50.29296875,-16.6015625,0.0
1690406721.7321918,187.5,5.37109375,-48.828125,168.45703125,0.0
1690406721.7363398,-41.015625,-32.2265625,-52.734375,-25.87890625,0.0
1690406721.7402263,-205.56640625,-41.50390625,-50.78125,-213.8671875,0.0
1690406721.7441127,-21.97265625,-17.08984375,-59.08203125,-59.08203125,0.0
1690406721.7479992,212.890625,2.44140625,-52.734375,189.94140625,0.0
1690406721.7518857,32.2265625,-20.99609375,-39.55078125,40.0390625,0.0
1690406721.755772,-231.93359375,-46.38671875,-45.8984375,-236.81640625,0.0
1690406721.7596586,-169.921875,-41.015625,-44.921875,-198.2421875,0.0
1690406721.763545,70.3125,-27.34375,-39.55078125,49.31640625,0.0
1690406721.7674317,21.484375,-45.41015625,-41.015625,35.64453125,0.0
1690406721.7713182,-248.046875,-69.82421875,-41.015625,-215.33203125,0.0
1690406721.7752047,-285.15625,-63.96484375,-40.52734375,-281.73828125,0.0
1690406721.7790911,-63.4765625,-53.7109375,-47.8515625,-75.1953125,0.0
1690406721.7832284,-11.23046875,-66.40625,-38.57421875,17.08984375,0.0
1690406721.787115,-259.765625,-89.84375,-36.1328125,-225.09765625,0.0
1690406721.7910016,-372.0703125,-77.1484375,-48.33984375,-365.72265625,0.0
1690406721.794888,-189.453125,-71.77734375,-42.96875,-194.82421875,0.0
1690406721.7987747,-39.55078125,-95.21484375,-41.50390625,-30.2734375,0.0
1690406721.8026612,-252.44140625,-90.8203125,-50.78125,-211.9140625,0.0
1690406721.8065476,-427.734375,-83.984375,-47.36328125,-408.203125,0.0
1690406721.810434,-271.97265625,-80.078125,-53.22265625,-290.52734375,0.0
1690406721.8143208,-62.01171875,-60.05859375,-39.55078125,-73.73046875,0.0
1690406721.8182073,-195.3125,-62.5,-26.3671875,-180.17578125,0.0
1690406721.8220937,-417.96875,-65.91796875,-40.0390625,-408.203125,0.0
1690406721.8259804,-368.1640625,-70.3125,-21.484375,-386.23046875,0.0
1690406721.8301086,-126.46484375,-43.9453125,-55.6640625,-158.69140625,0.0
1690406721.8339953,-77.1484375,-26.85546875,-82.51953125,-91.30859375,0.0
1690406721.8378818,-295.41015625,-73.73046875,-17.08984375,-298.33984375,0.0
1690406721.8417683,-405.76171875,-77.63671875,-38.57421875,-441.40625,0.0
1690406721.845655,-196.2890625,-62.01171875,-89.84375,-251.953125,0.0
1690406721.8495414,-83.49609375,-51.26953125,-46.38671875,-92.7734375,0.0
1690406721.8534281,-300.29296875,-47.8515625,1.46484375,-291.50390625,0.0
1690406721.8573146,-401.85546875,-56.15234375,-6.8359375,-412.59765625,0.0
1690406721.8612013,-214.35546875,-33.69140625,-37.59765625,-242.1875,0.0
1690406721.8650877,-49.31640625,-4.39453125,-56.15234375,-62.01171875,0.0
1690406721.8689742,-249.0234375,-84.47265625,-76.66015625,-228.02734375,0.0
1690406721.872861,-398.92578125,-121.58203125,-67.87109375,-387.6953125,0.0
1690406721.8769798,-236.328125,-12.6953125,-54.6875,-259.765625,0.0
1690406721.8808665,-28.80859375,12.20703125,-35.64453125,-67.3828125,0.0
1690406721.884753,-140.13671875,-26.3671875,-23.92578125,-127.9296875,0.0
1690406721.8886397,-364.2578125,-44.43359375,-35.15625,-322.265625,0.0
1690406721.8925264,-320.3125,-53.7109375,-46.875,-318.359375,0.0
1690406721.8964128,-61.03515625,-45.41015625,-42.96875,-72.265625,0.0
1690406721.9002995,-20.01953125,-23.92578125,-33.203125,0.48828125,0.0
1690406721.904186,-257.8125,-42.48046875,-42.48046875,-227.5390625,0.0
1690406721.9080727,-315.91796875,-70.80078125,-63.4765625,-321.77734375,0.0
1690406721.9119592,-73.2421875,-48.33984375,-77.63671875,-107.421875,0.0
1690406721.9158459,59.08203125,-25.87890625,-62.01171875,37.59765625,0.0
1690406721.9197326,-153.3203125,-54.19921875,-54.19921875,-147.94921875,0.0
1690406721.9238367,-284.66796875,-73.73046875,-41.9921875,-275.87890625,0.0
1690406721.9277234,-84.9609375,-46.38671875,-72.75390625,-109.86328125,0.0
1690406721.93161,119.62890625,-21.484375,-81.0546875,101.5625,0.0
1690406721.9354968,-66.89453125,-59.08203125,-42.48046875,-44.921875,0.0
1690406721.9393833,-254.39453125,-71.77734375,-70.3125,-259.765625,0.0
1690406721.94327,-124.0234375,-30.76171875,-101.5625,-146.97265625,0.0
1690406721.9471567,102.05078125,-34.66796875,-56.15234375,84.9609375,0.0
1690406721.9510431,31.73828125,-44.921875,-27.34375,27.83203125,0.0
1690406721.9549298,-183.10546875,-35.64453125,-50.29296875,-188.96484375,0.0
1690406721.9588165,-170.8984375,-43.9453125,-63.96484375,-191.40625,0.0
1690406721.9627032,72.75390625,-38.0859375,-67.3828125,31.25,0.0
1690406721.9665897,126.953125,-30.2734375,-69.3359375,107.91015625,0.0
1690406721.9706836,-87.890625,-41.50390625,-66.89453125,-91.796875,0.0
1690406721.97457,-157.2265625,-56.15234375,-67.3828125,-188.96484375,0.0
1690406721.9784567,72.265625,-23.92578125,-51.7578125,34.1796875,0.0
1690406721.9823434,209.9609375,-1.46484375,-58.10546875,199.70703125,0.0
1690406721.9862301,-12.6953125,-32.2265625,-97.16796875,-19.53125,0.0
1690406721.9901168,-156.25,-41.9921875,-64.94140625,-184.08203125,0.0
1690406721.9940035,9.765625,-53.22265625,-37.109375,-25.390625,0.0
1690406721.9978902,217.7734375,-32.2265625,-56.15234375,193.84765625,0.0
1690406722.0017767,66.40625,-23.92578125,-62.01171875,68.359375,0.0
1690406722.0056634,-136.71875,-39.55078125,-60.05859375,-143.06640625,0.0
1690406722.00955,-48.828125,-22.94921875,-50.29296875,-70.80078125,0.0
1690406722.0134368,193.359375,-25.390625,-34.1796875,172.8515625,0.0
1690406722.017525,161.62109375,-28.3203125,-33.203125,167.48046875,0.0
1690406722.0214117,-67.87109375,-17.578125,-44.43359375,-83.984375,0.0
1690406722.0252984,-86.9140625,-21.97265625,-48.828125,-124.51171875,0.0
1690406722.029185,134.27734375,-15.625,-31.73828125,119.62890625,0.0
1690406722.0330718,188.96484375,-18.5546875,-25.87890625,201.171875,0.0
1690406722.0369585,-38.57421875,-51.26953125,-25.87890625,-23.92578125,0.0
1690406722.0408452,-132.8125,-59.08203125,-32.2265625,-138.671875,0.0
1690406722.0447319,78.61328125,-23.4375,-39.0625,52.24609375,0.0
1690406722.0486186,239.74609375,-9.765625,-50.78125,223.6328125,0.0
1690406722.0525053,21.484375,-37.59765625,-40.0390625,42.96875,0.0
1690406722.056392,-155.76171875,-59.08203125,-15.625,-142.08984375,0.0
1690406722.0602787,3.41796875,-33.203125,-29.296875,-16.11328125,0.0
1690406722.0644324,220.21484375,-11.23046875,-34.66796875,209.9609375,0.0
1690406722.068319,80.078125,-26.85546875,-29.78515625,108.3984375,0.0
1690406722.0722058,-131.8359375,-34.1796875,-27.34375,-113.76953125,0.0
1690406722.0760925,-64.453125,-23.92578125,-32.2265625,-69.82421875,0.0
1690406722.0799792,180.17578125,-19.04296875,-49.31640625,160.15625,0.0
1690406722.083866,161.1328125,-38.57421875,-54.6875,158.203125,0.0
1690406722.0877526,-83.49609375,-38.0859375,-41.015625,-75.68359375,0.0
1690406722.0916395,-114.2578125,-26.85546875,-48.828125,-133.7890625,0.0
1690406722.0955262,113.28125,-32.2265625,-54.6875,78.61328125,0.0
1690406722.099413,194.3359375,-19.04296875,-38.57421875,192.87109375,0.0
1690406722.1032996,-53.7109375,-8.30078125,-33.203125,-39.0625,0.0
1690406722.1071863,-159.66796875,-13.671875,-36.62109375,-177.734375,0.0
1690406722.1113293,47.36328125,-24.90234375,-42.96875,10.7421875,0.0
1690406722.115216,198.73046875,-29.296875,-58.59375,176.7578125,0.0
1690406722.1191027,-0.9765625,-33.203125,-70.3125,-0.48828125,0.0
1690406722.1229897,-173.828125,-40.52734375,-63.4765625,-183.59375,0.0
1690406722.1268764,-47.8515625,-31.25,-55.17578125,-84.47265625,0.0
1690406722.130763,165.52734375,-21.97265625,-46.875,138.18359375,0.0
1690406722.13465,63.4765625,-38.57421875,-40.0390625,76.171875,0.0
1690406722.1385367,-152.34375,-37.109375,-57.12890625,-158.203125,0.0
1690406722.1424234,-116.69921875,-42.96875,-53.7109375,-144.53125,0.0
1690406722.1463103,113.28125,-48.33984375,-41.015625,101.07421875,0.0
1690406722.150197,126.953125,-34.1796875,-48.33984375,135.25390625,0.0
1690406722.1540837,-127.44140625,-50.78125,-59.5703125,-105.46875,0.0
1690406722.1582165,-195.3125,-56.640625,-55.6640625,-186.03515625,0.0
1690406722.1621032,46.875,-36.62109375,-44.43359375,28.3203125,0.0
1690406722.16599,161.62109375,-26.85546875,-51.26953125,157.71484375,0.0
1690406722.1698768,-81.54296875,-49.31640625,-60.05859375,-55.17578125,0.0
1690406722.1737638,-217.28515625,-68.84765625,-43.45703125,-199.70703125,0.0
1690406722.1776505,-16.11328125,-55.6640625,-34.66796875,-12.20703125,0.0
1690406722.1815374,177.734375,-30.76171875,-41.015625,189.453125,0.0
1690406722.185424,-3.41796875,-54.19921875,-22.4609375,32.71484375,0.0
1690406722.1893108,-211.42578125,-83.49609375,-22.4609375,-180.6640625,0.0
1690406722.1931977,-89.84375,-48.33984375,-29.296875,-90.8203125,0.0
1690406722.1970844,135.7421875,-32.2265625,-44.43359375,130.859375,0.0
1690406722.2009714,67.87109375,-48.33984375,-66.40625,103.02734375,0.0
1690406722.205094,-155.76171875,-50.78125,-56.640625,-119.140625,0.0
1690406722.208981,-159.1796875,-56.640625,-31.25,-158.203125,0.0
1690406722.2128677,77.1484375,-50.29296875,-21.484375,81.0546875,0.0
1690406722.2167547,108.3984375,-52.734375,-17.578125,160.64453125,0.0
1690406722.2206414,-121.58203125,-73.2421875,-16.6015625,-72.75390625,0.0
1690406722.2245283,-195.3125,-74.70703125,-35.64453125,-185.05859375,0.0
1690406722.2284153,26.3671875,-59.08203125,-49.8046875,30.2734375,0.0
1690406722.232302,171.38671875,-57.6171875,-38.0859375,193.84765625,0.0
1690406722.236189,-51.26953125,-78.125,-30.2734375,-8.30078125,0.0
1690406722.2400756,-190.4296875,-68.359375,-55.17578125,-176.7578125,0.0
1690406722.2439625,10.25390625,-49.31640625,-51.7578125,-25.390625,0.0
1690406722.2478495,203.61328125,-27.34375,-32.71484375,174.31640625,0.0
1690406722.2519677,31.73828125,-37.59765625,-36.62109375,33.203125,0.0
1690406722.2558544,-175.78125,-68.359375,-43.9453125,-168.45703125,0.0
1690406722.2597413,-86.42578125,-52.734375,-55.6640625,-95.21484375,0.0
1690406722.2636282,153.80859375,-26.3671875,-57.12890625,138.18359375,0.0
1690406722.2675152,109.86328125,-24.4140625,-59.08203125,114.2578125,0.0
1690406722.271402,-130.859375,-53.22265625,-53.7109375,-121.58203125,0.0
1690406722.2752888,-135.7421875,-41.50390625,-61.03515625,-129.8828125,0.0
1690406722.2791758,92.7734375,-19.04296875,-61.5234375,80.078125,0.0
1690406722.2830627,128.41796875,-50.29296875,-34.1796875,125.48828125,0.0
1690406722.2869494,-103.02734375,-68.84765625,-43.9453125,-78.61328125,0.0
1690406722.2908363,-168.9453125,-58.59375,-41.9921875,-172.8515625,0.0
1690406722.2947233,31.73828125,-39.55078125,-28.80859375,15.625,0.0
1690406722.2988307,158.203125,-35.15625,-31.25,182.6171875,0.0
1690406722.3027177,-62.98828125,-64.94140625,-30.2734375,-8.7890625,0.0
1690406722.3066046,-211.9140625,-69.82421875,-42.96875,-211.42578125,0.0
1690406722.3104913,-36.1328125,-41.015625,-61.5234375,-102.5390625,0.0
1690406722.3143783,160.64453125,-28.3203125,-51.26953125,130.859375,0.0
1690406722.3182652,16.11328125,-59.5703125,-35.15625,54.6875,0.0
1690406722.3221521,-188.4765625,-72.265625,-64.94140625,-189.94140625,0.0
1690406722.326039,-104.4921875,-62.98828125,-71.2890625,-135.25390625,0.0
1690406722.329926,147.4609375,-40.52734375,-50.29296875,142.578125,0.0
1690406722.333813,128.90625,-44.43359375,-60.05859375,145.99609375,0.0
1690406722.3377,-103.02734375,-54.6875,-54.19921875,-107.91015625,0.0
1690406722.3415866,-119.140625,-33.203125,-36.62109375,-176.7578125,0.0
1690406722.3456795,93.26171875,-26.85546875,-41.9921875,47.8515625,0.0
1690406722.3495665,179.6875,-15.625,-37.109375,161.1328125,0.0
1690406722.3534534,-25.87890625,-22.4609375,-38.0859375,-50.78125,0.0
1690406722.3573403,-168.45703125,-57.12890625,-44.921875,-176.7578125,0.0
1690406722.3612273,25.87890625,-36.1328125,-40.52734375,-9.765625,0.0
1690406722.3651142,220.703125,-10.25390625,-41.015625,169.921875,0.0
1690406722.3690012,14.16015625,-38.0859375,-25.87890625,4.8828125,0.0
1690406722.372888,-187.01171875,-55.17578125,-22.4609375,-193.84765625,0.0
1690406722.376775,-55.6640625,-46.38671875,-39.55078125,-82.03125,0.0
1690406722.380662,170.41015625,-30.76171875,-32.2265625,146.484375,0.0
1690406722.384549,85.44921875,-26.3671875,-27.83203125,45.8984375,0.0
1690406722.3884358,-138.671875,-37.59765625,-26.85546875,-176.7578125,0.0
1690406722.3925211,-116.2109375,-44.921875,-20.5078125,-147.94921875,0.0
1690406722.396408,124.51171875,-37.59765625,-39.55078125,85.44921875,0.0
1690406722.400295,116.69921875,-33.69140625,-44.921875,117.1875,0.0
1690406722.404182,-106.93359375,-34.1796875,-34.1796875,-124.0234375,0.0
1690406722.408069,-139.6484375,-24.4140625,-39.55078125,-184.5703125,0.0
1690406722.4119558,58.10546875,-29.296875,-36.1328125,44.921875,0.0
1690406722.4158428,133.30078125,-27.83203125,-23.4375,150.87890625,0.0
1690406722.41973,-91.30859375,-33.203125,-9.765625,-55.6640625,0.0
1690406722.423617,-232.91015625,-48.33984375,-12.6953125,-207.51953125,0.0
1690406722.4275038,-54.19921875,-50.78125,-21.484375,-51.7578125,0.0
1690406722.4313908,153.3203125,-32.2265625,-26.3671875,129.39453125,0.0
1690406722.4352777,-35.15625,-34.1796875,-35.64453125,-19.53125,0.0
1690406722.4394348,-230.95703125,-54.6875,-25.390625,-191.89453125,0.0
1690406722.4433217,-102.5390625,-45.41015625,-40.0390625,-91.796875,0.0
1690406722.4472086,128.90625,-42.48046875,-43.9453125,124.51171875,0.0
1690406722.4510958,32.71484375,-62.01171875,-21.97265625,60.05859375,0.0
1690406722.4549828,-214.84375,-81.0546875,-36.1328125,-166.015625,0.0
1690406722.4588697,-164.0625,-58.59375,-46.38671875,-165.0390625,0.0
1690406722.4627569,75.1953125,-28.80859375,-19.53125,80.078125,0.0
1690406722.4666438,84.9609375,-38.57421875,-5.37109375,136.23046875,0.0
1690406722.4705307,-120.1171875,-35.15625,-31.25,-112.3046875,0.0
1690406722.4744177,-179.19921875,-36.1328125,-44.921875,-213.37890625,0.0
1690406722.4783049,8.7890625,-36.62109375,-28.3203125,-5.37109375,0.0
1690406722.4821918,110.3515625,-41.50390625,-33.69140625,139.6484375,0.0
1690406722.4863367,-81.0546875,-50.78125,-33.69140625,-61.5234375,0.0
1690406722.4902236,-197.265625,-44.921875,-39.0625,-215.33203125,0.0
1690406722.4941108,-25.87890625,-56.640625,-47.8515625,-36.1328125,0.0
1690406722.4979978,143.06640625,-54.19921875,-48.33984375,170.8984375,0.0
1690406722.501885,-12.20703125,-18.06640625,-63.4765625,5.37109375,0.0
1690406722.5057719,-180.6640625,-28.3203125,-49.8046875,-191.89453125,0.0
1690406722.509659,-87.890625,-32.71484375,-40.0390625,-98.14453125,0.0
1690406722.513546,151.3671875,0.9765625,-44.921875,128.41796875,0.0
1690406722.517433,69.3359375,-20.01953125,-34.1796875,99.12109375,0.0
1690406722.52132,-175.29296875,-37.59765625,-33.203125,-144.04296875,0.0
1690406722.525207,-162.59765625,-24.90234375,-44.921875,-183.10546875,0.0
1690406722.5290942,81.54296875,-20.01953125,-42.48046875,65.91796875,0.0
1690406722.5332239,147.4609375,-6.8359375,-41.50390625,134.765625,0.0
1690406722.537111,-85.44921875,-15.13671875,-35.64453125,-103.515625,0.0
1690406722.540998,-185.546875,-32.2265625,-26.3671875,-205.078125,0.0
1690406722.5448852,24.90234375,-30.76171875,-30.2734375,-6.34765625,0.0
1690406722.5487723,139.16015625,-54.19921875,-39.55078125,146.97265625,0.0
1690406722.5526593,-78.125,-52.24609375,-57.12890625,-58.10546875,0.0
1690406722.5565464,-191.40625,-29.78515625,-53.7109375,-227.05078125,0.0
1690406722.5604334,-18.5546875,-42.48046875,-49.31640625,-48.33984375,0.0
1690406722.5643206,148.92578125,-34.1796875,-77.63671875,151.3671875,0.0
1690406722.5682077,-12.6953125,-19.53125,-85.9375,-1.46484375,0.0
1690406722.5720947,-193.84765625,-31.25,-61.5234375,-209.47265625,0.0
1690406722.5759819,-128.41796875,-41.015625,-44.43359375,-141.6015625,0.0
1690406722.5801015,83.49609375,-36.62109375,-56.640625,98.6328125,0.0
1690406722.5839887,65.91796875,-31.73828125,-49.8046875,81.54296875,0.0
1690406722.5878758,-131.34765625,-28.80859375,-30.76171875,-161.62109375,0.0
1690406722.5917628,-147.94921875,-34.1796875,-58.10546875,-215.33203125,0.0
1690406722.59565,55.17578125,-41.50390625,-87.40234375,32.2265625,0.0
1690406722.5995371,122.55859375,-39.55078125,-43.45703125,132.32421875,0.0
1690406722.6034243,-110.83984375,-42.48046875,8.7890625,-95.703125,0.0
1690406722.6073112,-223.6328125,-62.01171875,0.0,-217.7734375,0.0
1690406722.6111984,1.46484375,-47.36328125,-34.1796875,-32.71484375,0.0
1690406722.6150856,162.59765625,-21.484375,-47.8515625,133.30078125,0.0
1690406722.6189728,-57.6171875,-40.52734375,-31.25,-44.43359375,0.0
1690406722.6228597,-211.9140625,-40.0390625,-57.12890625,-224.12109375,0.0
1690406722.6269777,-48.828125,-20.01953125,-84.9609375,-109.375,0.0
1690406722.6308649,150.87890625,-39.55078125,-58.59375,132.8125,0.0
1690406722.634752,15.625,-49.31640625,-19.04296875,46.38671875,0.0
1690406722.6386392,-186.03515625,-50.78125,-16.6015625,-209.47265625,0.0
1690406722.6425264,-131.8359375,-52.24609375,-24.4140625,-164.55078125,0.0
1690406722.6464133,82.03125,-41.50390625,-37.59765625,71.2890625,0.0
1690406722.6503005,62.01171875,-50.78125,-52.24609375,66.40625,0.0
1690406722.6541877,-153.3203125,-50.78125,-53.22265625,-151.3671875,0.0
1690406722.6580749,-191.89453125,-43.45703125,-51.26953125,-189.453125,0.0
1690406722.661962,34.1796875,-49.8046875,-52.734375,42.96875,0.0
1690406722.6658492,153.3203125,-26.3671875,-65.4296875,137.6953125,0.0
1690406722.6697364,-74.70703125,-14.6484375,-66.89453125,-91.796875,0.0
1690406722.6738365,-210.44921875,-43.9453125,-55.6640625,-209.9609375,0.0
1690406722.6777236,-33.69140625,-55.17578125,-44.43359375,-11.23046875,0.0
1690406722.6816108,150.390625,-31.25,-48.828125,140.625,0.0
1690406722.685498,-40.0390625,-36.62109375,-44.921875,-46.875,0.0
1690406722.6893852,-213.37890625,-42.96875,-32.71484375,-201.66015625,0.0
1690406722.6932724,-74.70703125,-23.4375,-35.64453125,-94.23828125,0.0
1690406722.6971595,151.3671875,-20.99609375,-28.3203125,135.7421875,0.0
1690406722.7010467,37.109375,-53.22265625,-14.16015625,96.19140625,0.0
1690406722.704934,-197.265625,-52.24609375,-39.55078125,-147.94921875,0.0
1690406722.708821,-128.41796875,-28.3203125,-61.03515625,-159.1796875,0.0
1690406722.7127082,126.46484375,-22.94921875,-53.7109375,87.40234375,0.0
1690406722.7165954,114.2578125,-35.15625,-59.5703125,106.93359375,0.0
1690406722.720694,-132.32421875,-48.828125,-48.828125,-130.37109375,0.0
1690406722.7245812,-177.734375,-37.109375,-66.40625,-191.89453125,0.0
1690406722.7284684,41.9921875,-20.99609375,-63.4765625,20.01953125,0.0
1690406722.7323556,131.34765625,-21.484375,-26.85546875,151.85546875,0.0
1690406722.7362428,-97.65625,-38.0859375,-40.0390625,-74.21875,0.0
1690406722.74013,-205.078125,-35.64453125,-60.546875,-230.95703125,0.0
1690406722.7440174,-32.71484375,-38.57421875,-44.921875,-38.57421875,0.0
1690406722.7479045,159.1796875,-25.87890625,-39.0625,148.4375,0.0
1690406722.7517917,3.90625,-12.6953125,-47.8515625,-23.4375,0.0
1690406722.755679,-192.3828125,-39.55078125,-45.8984375,-205.56640625,0.0
1690406722.759566,-89.84375,-40.52734375,-46.38671875,-82.03125,0.0
1690406722.7634532,118.1640625,-27.34375,-37.59765625,151.85546875,0.0
1690406722.767536,69.82421875,-0.48828125,-54.19921875,76.171875,0.0
1690406722.771423,-148.4375,-5.859375,-70.80078125,-156.25,0.0
1690406722.7753103,-192.87109375,-50.29296875,-57.6171875,-161.62109375,0.0
1690406722.7791977,36.1328125,-35.15625,-42.48046875,73.2421875,0.0
1690406722.7830849,113.28125,-18.5546875,-36.1328125,125.9765625,0.0
1690406722.786972,-112.79296875,-43.45703125,-46.875,-116.2109375,0.0
1690406722.7908592,-220.21484375,-64.94140625,-51.7578125,-214.84375,0.0
1690406722.7947466,-13.18359375,-55.6640625,-53.7109375,4.8828125,0.0
1690406722.7986338,148.92578125,-30.2734375,-65.91796875,148.92578125,0.0
1690406722.802521,-75.1953125,-41.015625,-67.3828125,-62.98828125,0.0
1690406722.8064082,-232.421875,-46.875,-61.5234375,-224.12109375,0.0
1690406722.8102956,-46.38671875,-22.94921875,-70.3125,-69.82421875,0.0
1690406722.8144412,167.96875,-4.39453125,-78.125,146.97265625,0.0
1690406722.8183286,3.41796875,-24.90234375,-46.875,29.296875,0.0
1690406722.8222158,-211.9140625,-48.33984375,-24.4140625,-199.70703125,0.0
1690406722.826103,-113.76953125,-43.9453125,-33.69140625,-124.0234375,0.0
1690406722.8299904,96.6796875,-42.96875,-43.9453125,115.234375,0.0
1690406722.8338776,41.015625,-43.45703125,-46.38671875,74.21875,0.0
1690406722.837765,-165.52734375,-46.875,-46.875,-140.625,0.0
1690406722.8416522,-165.0390625,-29.78515625,-45.8984375,-161.1328125,0.0
1690406722.8455396,83.49609375,-3.41796875,-49.31640625,51.7578125,0.0
1690406722.8494267,134.765625,-18.06640625,-70.80078125,119.62890625,0.0
1690406722.853314,-118.1640625,-39.55078125,-71.77734375,-82.51953125,0.0
1690406722.8572013,-210.9375,-49.31640625,-66.40625,-182.12890625,0.0
1690406722.8613386,17.578125,-31.25,-72.265625,-0.48828125,0.0
1690406722.8652258,162.109375,-24.90234375,-40.52734375,172.8515625,0.0
1690406722.8691132,-53.7109375,-58.59375,-27.34375,4.39453125,0.0
1690406722.8730006,-223.14453125,-62.5,-33.69140625,-178.7109375,0.0
1690406722.8768878,-50.29296875,-31.25,-38.0859375,-49.31640625,0.0
1690406722.8807752,204.58984375,-14.16015625,-60.546875,183.59375,0.0
1690406722.8846624,77.63671875,-7.32421875,-53.7109375,97.65625,0.0
1690406722.8885498,-175.78125,-29.296875,-53.22265625,-153.80859375,0.0
1690406722.892437,-117.67578125,-26.3671875,-63.96484375,-135.25390625,0.0
1690406722.8963244,142.578125,14.6484375,-52.24609375,127.44140625,0.0
1690406722.9002118,118.1640625,23.4375,-84.9609375,135.25390625,0.0
1690406722.904099,-117.1875,0.48828125,-70.80078125,-119.62890625,0.0
1690406722.9082267,-184.08203125,-42.96875,-52.734375,-208.49609375,0.0
1690406722.9121141,32.71484375,-46.38671875,-62.98828125,3.41796875,0.0
1690406722.9160016,129.8828125,-5.37109375,-53.22265625,118.1640625,0.0
1690406722.919889,-121.58203125,0.0,-47.8515625,-104.00390625,0.0
1690406722.9237761,-245.1171875,-18.5546875,-51.26953125,-219.23828125,0.0
1690406722.9276636,-7.32421875,4.8828125,-70.80078125,-40.52734375,0.0
1690406722.931551,175.78125,23.4375,-72.75390625,127.44140625,0.0
1690406722.9354384,-42.96875,15.13671875,-48.33984375,-23.4375,0.0
1690406722.9393256,-211.9140625,4.8828125,-51.26953125,-192.87109375,0.0
1690406722.943213,-37.59765625,16.6015625,-85.44921875,-102.05078125,0.0
1690406722.9471004,180.17578125,33.69140625,-93.26171875,115.234375,0.0
1690406722.9509876,50.29296875,15.13671875,-91.30859375,43.9453125,0.0
1690406722.955104,-150.390625,11.71875,-82.03125,-187.98828125,0.0
1690406722.9589913,-105.95703125,20.01953125,-72.265625,-152.34375,0.0
1690406722.9628787,130.859375,22.4609375,-85.44921875,83.0078125,0.0
1690406722.966766,149.90234375,28.80859375,-73.73046875,131.8359375,0.0
1690406722.9706535,-62.98828125,47.8515625,-49.8046875,-78.125,0.0
1690406722.974541,-121.09375,40.0390625,-59.5703125,-191.89453125,0.0
1690406722.9784284,74.70703125,14.16015625,-91.796875,-6.8359375,0.0
1690406722.9823158,188.96484375,23.4375,-93.26171875,171.875,0.0
1690406722.9862032,-37.59765625,13.671875,-48.828125,-28.80859375,0.0
1690406722.9900904,-169.43359375,6.34765625,-43.9453125,-204.58984375,0.0
1690406722.9939778,2.9296875,8.30078125,-66.89453125,-33.69140625,0.0
1690406722.9978652,142.578125,-13.18359375,-77.1484375,149.90234375,0.0
1690406723.0019715,-14.16015625,-5.37109375,-85.44921875,-23.92578125,0.0
1690406723.005859,-177.734375,1.953125,-89.35546875,-218.75,0.0
1690406723.0097463,-65.4296875,-12.20703125,-77.63671875,-98.14453125,0.0
1690406723.0136337,166.50390625,17.578125,-77.63671875,126.46484375,0.0
1690406723.0175211,90.33203125,23.4375,-73.2421875,77.63671875,0.0
1690406723.0214086,-146.484375,-10.25390625,-72.265625,-148.4375,0.0
1690406723.025296,-131.8359375,1.953125,-86.9140625,-150.390625,0.0
1690406723.0291834,101.5625,6.34765625,-78.125,85.44921875,0.0
1690406723.0330708,91.796875,-23.92578125,-60.546875,118.1640625,0.0
1690406723.0369582,-145.01953125,-35.15625,-66.89453125,-127.44140625,0.0
1690406723.0408456,-170.8984375,-18.06640625,-70.80078125,-220.703125,0.0
1690406723.044733,60.05859375,7.32421875,-63.96484375,16.11328125,0.0
1690406723.048834,147.94921875,1.46484375,-68.359375,161.62109375,0.0
1690406723.0527215,-99.12109375,-28.80859375,-61.03515625,-39.55078125,0.0
1690406723.056609,-212.40234375,-33.203125,-50.29296875,-191.89453125,0.0
1690406723.0604963,-17.578125,-28.80859375,-59.08203125,-33.203125,0.0
1690406723.064384,165.0390625,-19.04296875,-76.66015625,159.66796875,0.0
1690406723.0682714,-21.484375,-34.66796875,-67.3828125,16.11328125,0.0
1690406723.0721588,-233.88671875,-48.33984375,-50.29296875,-192.87109375,0.0
1690406723.0760462,-106.93359375,-21.97265625,-63.96484375,-130.37109375,0.0
1690406723.0799336,150.87890625,-21.484375,-76.171875,117.67578125,0.0
1690406723.083821,81.0546875,-38.57421875,-71.2890625,87.890625,0.0
1690406723.0877085,-171.38671875,-48.828125,-68.84765625,-150.87890625,0.0
1690406723.091596,-162.109375,-38.57421875,-66.89453125,-151.85546875,0.0
1690406723.0956912,109.375,0.48828125,-66.89453125,87.890625,0.0
1690406723.0995786,133.7890625,-27.34375,-76.171875,151.3671875,0.0
1690406723.103466,-126.953125,-68.84765625,-55.6640625,-78.125,0.0
1690406723.1073537,-198.2421875,-41.50390625,-59.5703125,-199.21875,0.0
1690406723.111241,10.25390625,-21.97265625,-89.35546875,-18.06640625,0.0
1690406723.1151285,139.6484375,-30.2734375,-75.1953125,144.53125,0.0
1690406723.119016,-74.21875,-55.6640625,-67.87109375,-63.4765625,0.0
1690406723.1229036,-199.70703125,-62.01171875,-76.171875,-207.51953125,0.0
1690406723.126791,-29.78515625,-41.9921875,-81.0546875,-38.0859375,0.0
1690406723.1306784,162.59765625,-41.50390625,-85.44921875,152.83203125,0.0
1690406723.1345658,6.8359375,-52.734375,-76.171875,23.92578125,0.0
1690406723.1384535,-195.80078125,-41.9921875,-60.546875,-173.33984375,0.0
1690406723.1425335,-109.86328125,-28.80859375,-65.4296875,-103.515625,0.0
1690406723.146421,125.0,-15.625,-80.078125,111.328125,0.0
1690406723.1503086,93.75,-24.4140625,-80.078125,89.84375,0.0
1690406723.154196,-151.85546875,-43.45703125,-64.453125,-155.76171875,0.0
1690406723.1580837,-171.38671875,-54.19921875,-57.12890625,-192.87109375,0.0
1690406723.161971,73.73046875,-50.78125,-55.6640625,56.640625,0.0
1690406723.1658585,131.34765625,-46.875,-48.33984375,158.69140625,0.0
1690406723.1697462,-87.40234375,-49.8046875,-63.4765625,-62.5,0.0
1690406723.1736336,-182.6171875,-47.8515625,-82.51953125,-204.58984375,0.0
1690406723.177521,-0.9765625,-36.62109375,-73.73046875,-25.390625,0.0
1690406723.1814086,147.4609375,-41.9921875,-93.26171875,139.6484375,0.0
1690406723.185296,-61.03515625,-66.89453125,-101.07421875,-42.48046875,0.0
1690406723.18944,-219.23828125,-77.1484375,-75.68359375,-211.9140625,0.0
1690406723.1933274,-53.7109375,-62.5,-78.125,-92.28515625,0.0
1690406723.197215,158.69140625,-54.6875,-99.609375,129.8828125,0.0
1690406723.2011025,21.484375,-51.7578125,-103.02734375,8.7890625,0.0
1690406723.2049901,-187.98828125,-60.546875,-87.890625,-205.56640625,0.0
1690406723.2088776,-101.07421875,-73.2421875,-69.3359375,-98.6328125,0.0
1690406723.2127652,137.20703125,-42.48046875,-78.125,123.53515625,0.0
1690406723.2166526,98.14453125,-20.01953125,-94.23828125,93.75,0.0
1690406723.2205403,-143.5546875,-31.73828125,-88.37890625,-148.4375,0.0
1690406723.2244277,-198.2421875,-44.43359375,-87.890625,-213.8671875,0.0
1690406723.2283154,25.390625,-31.25,-85.9375,5.37109375,0.0
1690406723.2322028,126.953125,-28.80859375,-79.1015625,127.44140625,0.0
1690406723.2363374,-95.21484375,-48.33984375,-79.58984375,-78.125,0.0
1690406723.2402248,-196.77734375,-64.94140625,-86.9140625,-220.703125,0.0
1690406723.2441125,3.41796875,-51.7578125,-79.1015625,-49.31640625,0.0
1690406723.2480001,159.1796875,-29.296875,-71.2890625,151.85546875,0.0
1690406723.2518878,-45.8984375,-46.875,-85.9375,-29.296875,0.0
1690406723.2557752,-214.84375,-62.5,-76.66015625,-222.16796875,0.0
1690406723.2596629,-69.82421875,-41.50390625,-84.47265625,-92.7734375,0.0
1690406723.2635505,153.3203125,-12.20703125,-103.02734375,124.51171875,0.0
1690406723.267438,33.203125,-35.64453125,-85.9375,65.4296875,0.0
1690406723.2713256,-203.125,-76.171875,-74.70703125,-162.109375,0.0
1690406723.2752132,-142.578125,-53.22265625,-79.58984375,-171.38671875,0.0
1690406723.2791007,87.890625,-27.83203125,-81.54296875,55.17578125,0.0
1690406723.2832253,102.05078125,-42.96875,-80.078125,109.375,0.0
1690406723.287113,-117.1875,-49.31640625,-95.703125,-120.60546875,0.0
1690406723.2910004,-194.82421875,-47.8515625,-91.30859375,-208.49609375,0.0
1690406723.294888,12.6953125,-31.73828125,-74.70703125,12.20703125,0.0
1690406723.2987757,134.27734375,-26.3671875,-72.75390625,137.20703125,0.0
1690406723.3026633,-83.49609375,-45.41015625,-66.89453125,-74.70703125,0.0
1690406723.306551,-222.16796875,-50.29296875,-60.546875,-219.7265625,0.0
1690406723.3104384,-48.828125,-40.52734375,-73.73046875,-55.17578125,0.0
1690406723.314326,137.6953125,-25.87890625,-72.75390625,147.4609375,0.0
1690406723.3182137,-35.64453125,-32.71484375,-63.96484375,1.46484375,0.0
1690406723.3221014,-223.14453125,-62.5,-70.80078125,-208.49609375,0.0
1690406723.325989,-112.3046875,-70.3125,-61.5234375,-120.1171875,0.0
1690406723.3301032,108.3984375,-45.41015625,-56.640625,111.81640625,0.0
1690406723.3339908,34.66796875,-41.9921875,-76.171875,74.70703125,0.0
1690406723.3378782,-188.4765625,-53.7109375,-89.35546875,-159.1796875,0.0
1690406723.3417659,-175.29296875,-49.8046875,-82.03125,-173.828125,0.0
1690406723.3456535,62.01171875,-43.45703125,-77.63671875,58.59375,0.0
1690406723.3495412,105.46875,-33.69140625,-51.26953125,129.39453125,0.0
1690406723.3534288,-132.8125,-29.78515625,-43.9453125,-92.28515625,0.0
1690406723.3573165,-202.1484375,-37.59765625,-67.87109375,-197.265625,0.0
1690406723.3612041,13.671875,-42.96875,-67.87109375,-3.90625,0.0
1690406723.3650918,133.7890625,-40.52734375,-71.2890625,133.7890625,0.0
1690406723.3689795,-65.4296875,-41.50390625,-55.6640625,-45.41015625,0.0
1690406723.372867,-198.73046875,-40.0390625,-42.48046875,-197.75390625,0.0
1690406723.3769717,-53.7109375,-36.62109375,-71.2890625,-65.91796875,0.0
1690406723.3808594,128.41796875,-32.2265625,-84.9609375,127.44140625,0.0
1690406723.384747,-17.578125,-38.57421875,-65.4296875,10.25390625,0.0
1690406723.3886347,-200.68359375,-43.9453125,-62.5,-201.66015625,0.0
1690406723.3925223,-112.3046875,-38.0859375,-64.453125,-139.16015625,0.0
1690406723.3964102,92.7734375,-49.8046875,-72.265625,92.28515625,0.0
1690406723.4002979,53.7109375,-63.96484375,-89.84375,69.3359375,0.0
1690406723.4041855,-149.90234375,-85.9375,-82.51953125,-148.4375,0.0
1690406723.4080732,-156.73828125,-64.453125,-74.70703125,-180.6640625,0.0
1690406723.4119608,68.359375,-22.4609375,-88.37890625,25.87890625,0.0
1690406723.4158485,112.3046875,-32.2265625,-63.96484375,108.3984375,0.0
1690406723.4197361,-133.30078125,-51.26953125,-33.69140625,-126.953125,0.0
1690406723.4238307,-239.2578125,-55.6640625,-44.43359375,-249.51171875,0.0
1690406723.4277186,-49.31640625,-44.921875,-50.29296875,-49.8046875,0.0
1690406723.4316063,104.00390625,-33.203125,-46.875,128.41796875,0.0
1690406723.435494,-72.265625,-48.33984375,-56.15234375,-69.3359375,0.0
1690406723.4393816,-228.515625,-69.3359375,-58.59375,-263.18359375,0.0
1690406723.4432693,-68.84765625,-38.0859375,-54.19921875,-111.328125,0.0
1690406723.4471571,138.671875,-28.3203125,-56.15234375,112.3046875,0.0
1690406723.4510448,-16.6015625,-51.7578125,-66.40625,3.41796875,0.0
1690406723.4549325,-236.328125,-40.52734375,-66.40625,-234.375,0.0
1690406723.45882,-154.296875,-47.36328125,-62.98828125,-185.546875,0.0
1690406723.4627078,98.6328125,-43.9453125,-67.3828125,79.1015625,0.0
1690406723.4665956,68.84765625,-37.59765625,-66.89453125,78.125,0.0
1690406723.470681,-178.22265625,-54.19921875,-77.63671875,-167.48046875,0.0
1690406723.4745688,-214.35546875,-58.10546875,-84.9609375,-228.515625,0.0
1690406723.4784565,27.34375,-56.15234375,-73.73046875,3.90625,0.0
1690406723.4823442,107.91015625,-52.24609375,-75.1953125,115.72265625,0.0
1690406723.486232,-111.81640625,-53.7109375,-72.75390625,-99.609375,0.0
1690406723.4901197,-203.61328125,-59.08203125,-62.01171875,-221.6796875,0.0
1690406723.4940073,0.9765625,-61.03515625,-54.6875,-41.015625,0.0
1690406723.4978952,163.57421875,-52.24609375,-56.15234375,142.08984375,0.0
1690406723.501783,-54.19921875,-46.875,-76.66015625,-36.1328125,0.0
1690406723.5056705,-238.76953125,-49.31640625,-76.66015625,-235.83984375,0.0
1690406723.5095584,-89.84375,-49.8046875,-70.80078125,-108.88671875,0.0
1690406723.513446,146.484375,-31.25,-78.125,115.72265625,0.0
1690406723.517526,28.3203125,-40.52734375,-83.49609375,26.3671875,0.0
1690406723.5214136,-187.5,-57.12890625,-59.5703125,-173.33984375,0.0
1690406723.5253012,-148.4375,-65.91796875,-54.19921875,-158.203125,0.0
1690406723.529189,87.890625,-41.015625,-65.91796875,59.08203125,0.0
1690406723.5330768,110.3515625,-21.97265625,-46.38671875,106.4453125,0.0
1690406723.5369647,-135.25390625,-59.5703125,-50.78125,-116.2109375,0.0
1690406723.5408523,-205.56640625,-56.15234375,-48.828125,-200.68359375,0.0
1690406723.5447402,28.80859375,-41.50390625,-42.96875,17.08984375,0.0
1690406723.5486279,151.3671875,-50.78125,-47.36328125,151.85546875,0.0
1690406723.5525155,-98.14453125,-59.5703125,-47.36328125,-67.87109375,0.0
1690406723.5564034,-227.5390625,-68.84765625,-70.3125,-211.42578125,0.0
1690406723.560291,-18.5546875,-63.4765625,-77.63671875,-43.9453125,0.0
1690406723.5644295,150.87890625,-33.69140625,-72.75390625,143.5546875,0.0
1690406723.5683174,-48.33984375,-33.203125,-78.125,-7.32421875,0.0
1690406723.572205,-232.421875,-59.08203125,-77.1484375,-198.2421875,0.0
1690406723.576093,-83.984375,-41.015625,-68.359375,-87.890625,0.0
1690406723.5799809,138.18359375,-43.9453125,-68.359375,121.58203125,0.0
1690406723.5838685,37.59765625,-49.31640625,-80.56640625,51.26953125,0.0
1690406723.5877564,-189.453125,-53.7109375,-79.1015625,-172.8515625,0.0
1690406723.591644,-168.45703125,-58.10546875,-62.01171875,-182.12890625,0.0
1690406723.595532,66.40625,-21.484375,-62.01171875,41.015625,0.0
1690406723.5994196,91.796875,-30.2734375,-59.08203125,104.98046875,0.0
1690406723.6033075,-140.13671875,-61.03515625,-58.59375,-110.3515625,0.0
1690406723.6071954,-179.19921875,-35.15625,-44.921875,-183.10546875,0.0
1690406723.6113245,62.98828125,-0.9765625,-41.50390625,39.0625,0.0
1690406723.6152124,148.4375,-11.23046875,-67.87109375,150.87890625,0.0
1690406723.6191003,-93.75,-30.76171875,-71.2890625,-72.75390625,0.0
1690406723.622988,-214.35546875,-21.97265625,-48.33984375,-220.703125,0.0
1690406723.6268759,-37.59765625,-22.4609375,-39.55078125,-48.33984375,0.0
1690406723.6307638,136.71875,-44.43359375,-61.5234375,134.27734375,0.0
1690406723.6346517,-19.04296875,-39.55078125,-53.7109375,-7.8125,0.0
1690406723.6385393,-208.984375,-37.109375,-47.36328125,-200.1953125,0.0
1690406723.6424272,-113.76953125,-39.0625,-67.3828125,-137.20703125,0.0
1690406723.646315,117.1875,-40.52734375,-76.171875,100.5859375,0.0
1690406723.6502028,63.4765625,-56.640625,-82.03125,74.21875,0.0
1690406723.6540906,-159.1796875,-43.45703125,-72.265625,-157.2265625,0.0
1690406723.6582096,-171.38671875,-34.66796875,-60.546875,-187.98828125,0.0
1690406723.6620975,57.12890625,-19.04296875,-60.546875,18.5546875,0.0
1690406723.6659853,114.74609375,-6.34765625,-53.22265625,96.19140625,0.0
1690406723.6698732,-131.8359375,-30.2734375,-55.17578125,-130.859375,0.0
1690406723.6737611,-232.91015625,-40.0390625,-59.08203125,-243.1640625,0.0
1690406723.677649,-41.50390625,-46.38671875,-72.265625,-38.0859375,0.0
1690406723.6815367,121.09375,-15.625,-42.48046875,134.765625,0.0
1690406723.6854246,-66.40625,-23.92578125,-5.859375,-61.03515625,0.0
1690406723.6893125,-251.953125,-81.54296875,-40.52734375,-259.765625,0.0
1690406723.6932003,-108.3984375,-69.3359375,-86.42578125,-131.8359375,0.0
1690406723.6970882,121.58203125,-48.828125,-95.21484375,99.609375,0.0
1690406723.7009761,-11.23046875,-70.3125,-82.03125,-3.41796875,0.0
1690406723.7050853,-218.26171875,-52.24609375,-50.78125,-216.30859375,0.0
1690406723.7089732,-126.46484375,-15.13671875,-37.109375,-137.20703125,0.0
1690406723.712861,114.2578125,-13.671875,-36.62109375,86.9140625,0.0
1690406723.716749,61.03515625,-51.7578125,-39.55078125,64.94140625,0.0
1690406723.7206368,-187.98828125,-90.8203125,-62.98828125,-163.0859375,0.0
1690406723.7245247,-196.77734375,-67.3828125,-59.5703125,-206.0546875,0.0
1690406723.7284126,37.59765625,-29.78515625,-59.08203125,11.71875,0.0
1690406723.7323005,109.86328125,-36.62109375,-68.84765625,110.83984375,0.0
1690406723.7361884,-119.62890625,-61.5234375,-62.98828125,-94.7265625,0.0
1690406723.7400763,-211.42578125,-38.0859375,-51.7578125,-209.9609375,0.0
1690406723.7439642,9.27734375,-2.9296875,-60.05859375,-11.71875,0.0
1690406723.747852,153.3203125,-29.78515625,-74.21875,152.83203125,0.0
1690406723.7519517,-73.2421875,-50.29296875,-75.1953125,-47.36328125,0.0
1690406723.7558396,-215.33203125,-31.73828125,-66.40625,-207.51953125,0.0
1690406723.7597275,-52.734375,-10.25390625,-55.17578125,-62.5,0.0
1690406723.7636154,133.7890625,-16.11328125,-63.4765625,127.9296875,0.0
1690406723.7675035,17.08984375,-38.57421875,-63.4765625,36.1328125,0.0
1690406723.7713914,-196.2890625,-46.875,-64.94140625,-183.59375,0.0
1690406723.7752793,-153.3203125,-37.109375,-68.359375,-162.59765625,0.0
1690406723.7791672,97.65625,-16.6015625,-78.125,87.890625,0.0
1690406723.783055,93.75,-23.4375,-72.75390625,97.65625,0.0
1690406723.786943,-157.71484375,-37.59765625,-50.29296875,-145.99609375,0.0
1690406723.7908309,-192.87109375,-31.25,-53.22265625,-190.91796875,0.0
1690406723.7947187,49.8046875,-7.32421875,-64.453125,33.203125,0.0
1690406723.798809,154.78515625,-13.671875,-59.5703125,145.99609375,0.0
1690406723.802697,-76.66015625,-48.33984375,-57.12890625,-73.2421875,0.0
1690406723.8065848,-210.9375,-43.9453125,-65.4296875,-213.8671875,0.0
1690406723.8104727,-14.6484375,-20.5078125,-56.15234375,-28.80859375,0.0
1690406723.8143609,154.296875,-31.73828125,-68.359375,144.04296875,0.0
1690406723.8182487,-32.2265625,-39.0625,-66.89453125,-25.87890625,0.0
1690406723.8221366,-214.84375,-45.41015625,-54.19921875,-202.63671875,0.0
1690406723.8260245,-74.21875,-37.109375,-54.6875,-86.42578125,0.0
1690406723.8299127,156.25,-12.6953125,-49.8046875,132.8125,0.0
1690406723.8338006,39.55078125,-27.34375,-62.01171875,59.5703125,0.0
1690406723.8376884,-179.6875,-38.57421875,-75.1953125,-163.0859375,0.0
1690406723.8415763,-138.18359375,-25.87890625,-71.77734375,-159.66796875,0.0
1690406723.8456578,97.16796875,-7.8125,-63.4765625,67.3828125,0.0
1690406723.8495457,104.98046875,-28.3203125,-63.4765625,110.3515625,0.0
1690406723.8534336,-133.7890625,-57.12890625,-57.6171875,-111.328125,0.0
1690406723.8573217,-185.546875,-24.90234375,-45.8984375,-187.01171875,0.0
1690406723.8612096,33.69140625,-9.765625,-58.59375,14.16015625,0.0
1690406723.8650975,149.90234375,-25.390625,-57.6171875,139.6484375,0.0
1690406723.8689857,-63.4765625,-37.109375,-63.96484375,-54.19921875,0.0
1690406723.8728735,-206.54296875,-44.921875,-74.21875,-204.1015625,0.0
1690406723.8767614,-29.78515625,-31.73828125,-65.4296875,-57.12890625,0.0
1690406723.8806496,182.12890625,-18.5546875,-66.40625,159.66796875,0.0
1690406723.8845375,5.859375,-40.52734375,-62.5,13.18359375,0.0
1690406723.8884254,-211.42578125,-39.0625,-61.03515625,-216.30859375,0.0
1690406723.8924987,-117.1875,-22.4609375,-60.546875,-128.90625,0.0
1690406723.8963869,111.328125,-32.71484375,-63.4765625,105.46875,0.0
1690406723.9002748,44.921875,-44.43359375,-59.08203125,71.2890625,0.0
1690406723.904163,-190.91796875,-44.43359375,-49.31640625,-149.4140625,0.0
1690406723.9080508,-192.3828125,-41.015625,-56.640625,-174.8046875,0.0
1690406723.9119387,47.36328125,-30.76171875,-64.94140625,57.12890625,0.0
1690406723.9158268,84.47265625,-33.69140625,-54.6875,124.51171875,0.0
1690406723.9197147,-135.7421875,-42.96875,-46.38671875,-98.6328125,0.0
1690406723.9236028,-209.47265625,-49.31640625,-59.5703125,-208.49609375,0.0
1690406723.9274907,9.765625,-32.2265625,-58.59375,-12.20703125,0.0
1690406723.9313788,158.203125,-29.296875,-55.17578125,147.94921875,0.0
1690406723.9352667,-67.3828125,-50.29296875,-53.22265625,-53.22265625,0.0
1690406723.9394026,-226.07421875,-49.8046875,-56.640625,-219.23828125,0.0
1690406723.9432907,-50.78125,-33.69140625,-51.26953125,-70.80078125,0.0
1690406723.9471786,152.34375,-27.83203125,-55.6640625,118.1640625,0.0
1690406723.9510667,-12.20703125,-42.96875,-59.5703125,-6.34765625,0.0
1690406723.9549546,-224.609375,-47.8515625,-55.17578125,-203.61328125,0.0
1690406723.9588428,-125.9765625,-38.0859375,-53.22265625,-139.16015625,0.0
1690406723.962731,117.1875,-36.1328125,-54.6875,102.05078125,0.0
1690406723.9666188,68.84765625,-45.41015625,-62.98828125,83.0078125,0.0
1690406723.970507,-169.43359375,-44.921875,-55.6640625,-144.04296875,0.0
1690406723.9743948,-187.98828125,-36.1328125,-48.828125,-181.15234375,0.0
1690406723.978283,42.96875,-26.85546875,-61.03515625,33.69140625,0.0
1690406723.982171,117.67578125,-32.2265625,-62.01171875,116.2109375,0.0
1690406723.986297,-110.3515625,-49.8046875,-49.8046875,-103.02734375,0.0
1690406723.990185,-210.44921875,-44.921875,-51.26953125,-211.42578125,0.0
1690406723.9940732,5.859375,-23.4375,-51.7578125,-20.99609375,0.0
1690406723.997961,154.296875,-25.87890625,-57.12890625,140.13671875,0.0
1690406724.0018492,-60.05859375,-45.41015625,-48.828125,-50.29296875,0.0
1690406724.0057373,-215.33203125,-48.828125,-49.31640625,-223.6328125,0.0
1690406724.0096252,-51.7578125,-37.59765625,-60.546875,-76.66015625,0.0
1690406724.0135133,177.734375,-20.01953125,-41.015625,149.4140625,0.0
1690406724.0174015,38.57421875,-23.4375,-38.0859375,48.828125,0.0
1690406724.0212896,-192.3828125,-53.7109375,-60.546875,-184.08203125,0.0
1690406724.0251775,-124.0234375,-53.7109375,-67.87109375,-150.390625,0.0
1690406724.0290656,120.1171875,-41.9921875,-64.453125,74.70703125,0.0
1690406724.033182,104.98046875,-38.0859375,-59.5703125,88.8671875,0.0
1690406724.03707,-133.7890625,-38.0859375,-56.640625,-136.71875,0.0
1690406724.0409582,-162.109375,-51.26953125,-48.33984375,-191.40625,0.0
1690406724.0448463,78.61328125,-48.33984375,-51.26953125,45.8984375,0.0
1690406724.0487344,168.45703125,-26.3671875,-59.08203125,137.20703125,0.0
1690406724.0526223,-74.21875,-34.66796875,-61.03515625,-87.890625,0.0
1690406724.0565104,-187.01171875,-46.875,-61.5234375,-206.0546875,0.0
1690406724.0603986,18.06640625,-43.9453125,-50.29296875,-24.90234375,0.0
1690406724.0642867,176.7578125,-57.12890625,-53.7109375,152.83203125,0.0
1690406724.0681748,-21.97265625,-51.7578125,-55.6640625,-20.01953125,0.0
1690406724.072063,-189.453125,-36.1328125,-43.9453125,-197.265625,0.0
1690406724.075951,-59.5703125,-40.52734375,-54.6875,-83.0078125,0.0
1690406724.0800579,173.828125,-21.484375,-60.546875,135.25390625,0.0
1690406724.083946,61.5234375,-21.97265625,-49.8046875,57.6171875,0.0
1690406724.0878341,-186.03515625,-62.01171875,-49.8046875,-180.6640625,0.0
1690406724.0917222,-130.37109375,-62.01171875,-44.921875,-158.203125,0.0
1690406724.0956104,119.140625,-26.85546875,-51.26953125,77.63671875,0.0
1690406724.0994985,126.953125,-30.2734375,-48.33984375,100.09765625,0.0
1690406724.1033866,-121.58203125,-54.19921875,-40.0390625,-122.55859375,0.0
1690406724.1072748,-182.12890625,-47.8515625,-44.921875,-186.03515625,0.0
1690406724.111163,39.0625,-26.85546875,-61.5234375,8.30078125,0.0
1690406724.115051,158.69140625,-25.390625,-54.6875,134.27734375,0.0
1690406724.1189392,-77.1484375,-43.45703125,-47.36328125,-62.01171875,0.0
1690406724.1228273,-223.6328125,-63.4765625,-52.24609375,-209.47265625,0.0
1690406724.1269255,-12.20703125,-64.453125,-60.546875,-32.71484375,0.0
1690406724.1308138,177.734375,-32.2265625,-81.0546875,164.55078125,0.0
1690406724.134702,-16.6015625,-39.0625,-77.63671875,5.37109375,0.0
1690406724.13859,-197.265625,-41.9921875,-62.5,-193.359375,0.0
1690406724.1424782,-53.22265625,-13.671875,-49.31640625,-85.44921875,0.0
1690406724.1463664,176.7578125,-12.20703125,-45.41015625,145.5078125,0.0
1690406724.1502545,81.0546875,-20.99609375,-54.6875,90.33203125,0.0
1690406724.1541426,-140.625,-21.97265625,-41.015625,-112.79296875,0.0
1690406724.1580307,-144.04296875,-41.015625,-44.921875,-141.11328125,0.0
1690406724.1619189,84.47265625,-40.0390625,-51.7578125,68.359375,0.0
1690406724.1658072,117.1875,-39.55078125,-50.78125,129.8828125,0.0
1690406724.1696954,-116.69921875,-47.8515625,-45.41015625,-89.84375,0.0
1690406724.1737843,-166.9921875,-43.45703125,-38.57421875,-176.26953125,0.0
1690406724.1776724,54.19921875,-37.109375,-51.26953125,12.6953125,0.0
1690406724.1815608,173.828125,-22.94921875,-56.640625,156.73828125,0.0
1690406724.185449,-49.31640625,-27.34375,-52.24609375,-35.64453125,0.0
1690406724.189337,-186.5234375,-42.96875,-45.8984375,-185.05859375,0.0
1690406724.1932251,-11.23046875,-32.71484375,-51.7578125,-41.015625,0.0
1690406724.1971133,184.5703125,-16.11328125,-69.3359375,144.53125,0.0
1690406724.2010016,21.484375,-27.83203125,-66.40625,25.87890625,0.0
1690406724.2048898,-190.91796875,-33.203125,-64.453125,-178.22265625,0.0
1690406724.208778,-84.9609375,-22.4609375,-55.6640625,-112.79296875,0.0
1690406724.212666,158.203125,-11.71875,-48.33984375,120.60546875,0.0
1690406724.2165544,99.609375,-12.6953125,-45.8984375,99.609375,0.0
1690406724.220634,-139.6484375,-31.73828125,-46.875,-135.25390625,0.0
1690406724.224522,-157.2265625,-42.96875,-62.01171875,-175.29296875,0.0
1690406724.2284102,81.54296875,-26.3671875,-69.82421875,48.828125,0.0
1690406724.2322986,131.8359375,-18.5546875,-63.4765625,128.90625,0.0
1690406724.2361867,-110.83984375,-37.59765625,-61.5234375,-93.26171875,0.0
1690406724.2400749,-184.5703125,-41.50390625,-57.12890625,-186.03515625,0.0
1690406724.2439632,27.34375,-39.0625,-51.26953125,5.37109375,0.0
1690406724.2478514,166.015625,-35.15625,-60.05859375,144.53125,0.0
1690406724.2517395,-62.98828125,-54.19921875,-56.15234375,-39.0625,0.0
1690406724.2556279,-224.12109375,-63.96484375,-41.50390625,-196.77734375,0.0
1690406724.259516,-53.22265625,-31.73828125,-51.7578125,-70.3125,0.0
1690406724.2634041,162.109375,-14.6484375,-62.5,140.13671875,0.0
1690406724.2675529,23.92578125,-30.2734375,-56.640625,32.2265625,0.0
1690406724.271441,-195.80078125,-41.015625,-49.31640625,-182.6171875,0.0
1690406724.2753294,-127.9296875,-24.90234375,-50.78125,-128.90625,0.0
1690406724.2792175,127.44140625,-9.765625,-47.8515625,102.05078125,0.0
1690406724.2831059,96.19140625,-28.3203125,-57.6171875,106.93359375,0.0
1690406724.286994,-137.20703125,-38.57421875,-55.17578125,-113.76953125,0.0
1690406724.2908823,-161.1328125,-32.2265625,-45.8984375,-169.921875,0.0
1690406724.2947705,61.03515625,-13.671875,-52.734375,38.0859375,0.0
1690406724.2986588,149.4140625,-11.23046875,-36.62109375,149.4140625,0.0
1690406724.302547,-101.5625,-43.9453125,-39.55078125,-73.73046875,0.0
1690406724.3064353,-226.07421875,-58.10546875,-58.10546875,-214.35546875,0.0
1690406724.3103235,-15.625,-38.57421875,-59.5703125,-38.0859375,0.0
1690406724.314462,158.203125,-21.484375,-56.15234375,137.6953125,0.0
1690406724.31835,-34.66796875,-35.64453125,-49.8046875,-21.97265625,0.0
1690406724.3222384,-208.49609375,-42.96875,-40.0390625,-201.171875,0.0
1690406724.3261268,-68.359375,-28.80859375,-43.45703125,-94.7265625,0.0
1690406724.330015,167.48046875,-18.5546875,-54.19921875,130.859375,0.0
1690406724.3339033,45.8984375,-34.66796875,-65.91796875,47.8515625,0.0
1690406724.3377917,-181.15234375,-40.0390625,-61.5234375,-171.38671875,0.0
1690406724.3416798,-135.25390625,-34.66796875,-52.734375,-146.484375,0.0
1690406724.3455682,92.7734375,-22.4609375,-56.640625,71.2890625,0.0
1690406724.3494563,95.21484375,-28.3203125,-56.15234375,91.30859375,0.0
1690406724.3533447,-156.25,-44.43359375,-60.05859375,-144.04296875,0.0
1690406724.357233,-207.51953125,-41.9921875,-68.359375,-219.7265625,0.0
1690406724.361357,37.109375,-29.296875,-65.91796875,1.46484375,0.0
1690406724.3652453,144.04296875,-32.71484375,-55.6640625,128.90625,0.0
1690406724.3691337,-90.33203125,-46.875,-43.45703125,-81.54296875,0.0
1690406724.373022,-210.9375,-43.9453125,-42.48046875,-224.12109375,0.0
1690406724.3769104,-12.6953125,-38.0859375,-60.546875,-58.10546875,0.0
1690406724.3807986,166.015625,-30.76171875,-61.5234375,136.71875,0.0
1690406724.384687,-27.34375,-42.96875,-58.10546875,-16.6015625,0.0
1690406724.3885753,-212.40234375,-55.6640625,-60.05859375,-216.30859375,0.0
1690406724.3924637,-78.61328125,-39.55078125,-56.640625,-105.95703125,0.0
1690406724.3963518,141.6015625,-25.390625,-62.01171875,121.58203125,0.0
1690406724.4002402,37.109375,-38.0859375,-62.98828125,48.828125,0.0
1690406724.4041286,-191.89453125,-48.33984375,-46.875,-180.17578125,0.0
1690406724.4082432,-155.76171875,-52.734375,-41.9921875,-178.7109375,0.0
1690406724.4121315,89.84375,-41.9921875,-48.33984375,52.734375,0.0
1690406724.41602,117.1875,-28.3203125,-49.8046875,105.95703125,0.0
1690406724.419908,-126.46484375,-50.29296875,-55.17578125,-109.86328125,0.0
1690406724.4237964,-181.640625,-54.19921875,-58.59375,-177.24609375,0.0
1690406724.4276848,75.1953125,-8.30078125,-42.48046875,49.8046875,0.0
1690406724.4315732,163.0859375,-14.16015625,-37.109375,165.0390625,0.0
1690406724.4354615,-95.703125,-57.12890625,-37.59765625,-51.26953125,0.0
1690406724.43935,-211.9140625,-63.4765625,-35.64453125,-187.98828125,0.0
1690406724.4432383,-28.80859375,-55.17578125,-56.640625,-45.8984375,0.0
1690406724.4471266,159.1796875,-41.015625,-59.08203125,152.34375,0.0
1690406724.451015,-0.9765625,-50.78125,-53.7109375,20.5078125,0.0
1690406724.455121,-191.89453125,-72.265625,-54.19921875,-185.546875,0.0
1690406724.4590094,-89.84375,-48.828125,-55.6640625,-113.28125,0.0
1690406724.4628978,147.94921875,-21.97265625,-54.6875,114.2578125,0.0
1690406724.4667861,88.8671875,-43.45703125,-55.6640625,90.8203125,0.0
1690406724.4706745,-148.92578125,-68.84765625,-51.26953125,-141.11328125,0.0
1690406724.474563,-159.66796875,-54.6875,-50.29296875,-172.8515625,0.0
1690406724.4784513,80.56640625,-25.390625,-48.33984375,58.59375,0.0
1690406724.4823396,128.41796875,-31.25,-50.29296875,132.32421875,0.0
1690406724.486228,-112.79296875,-56.15234375,-61.03515625,-90.8203125,0.0
1690406724.4901164,-198.2421875,-43.45703125,-57.6171875,-194.82421875,0.0
1690406724.4940047,20.5078125,-25.87890625,-62.01171875,-6.34765625,0.0
1690406724.497893,155.2734375,-27.83203125,-64.94140625,139.6484375,0.0
1690406724.5019906,-62.01171875,-32.2265625,-50.78125,-46.38671875,0.0
1690406724.505879,-206.54296875,-45.8984375,-48.33984375,-213.8671875,0.0
1690406724.5097673,-47.8515625,-47.8515625,-55.6640625,-93.75,0.0
1690406724.5136557,160.64453125,-16.6015625,-57.12890625,119.62890625,0.0
1690406724.517544,15.625,-13.671875,-51.26953125,19.04296875,0.0
1690406724.5214326,-209.47265625,-37.109375,-52.24609375,-201.171875,0.0
1690406724.525321,-137.20703125,-36.1328125,-57.12890625,-147.94921875,0.0
1690406724.5292094,114.74609375,-36.62109375,-59.5703125,86.9140625,0.0
1690406724.5330977,79.1015625,-42.96875,-64.453125,89.35546875,0.0
1690406724.536986,-152.34375,-47.36328125,-61.03515625,-138.18359375,0.0
1690406724.5408745,-162.109375,-38.0859375,-48.828125,-178.7109375,0.0
1690406724.544763,82.03125,-8.7890625,-54.6875,43.45703125,0.0
1690406724.5489948,161.1328125,-6.34765625,-48.828125,138.18359375,0.0
1690406724.5528831,-88.37890625,-24.90234375,-37.59765625,-73.73046875,0.0
1690406724.5567718,-207.03125,-24.4140625,-47.36328125,-201.171875,0.0
1690406724.5606601,10.7421875,-7.8125,-47.8515625,-14.16015625,0.0
1690406724.5645485,166.9921875,1.46484375,-47.36328125,158.203125,0.0
1690406724.568437,-51.26953125,-16.11328125,-50.78125,-26.3671875,0.0
1690406724.5723255,-212.40234375,-36.1328125,-38.57421875,-199.70703125,0.0
1690406724.5762138,-50.29296875,-36.62109375,-37.109375,-64.94140625,0.0
1690406724.5801024,161.62109375,-23.4375,-52.24609375,141.11328125,0.0
1690406724.5839908,23.4375,-28.3203125,-51.7578125,42.96875,0.0
1690406724.5878792,-198.73046875,-35.64453125,-45.41015625,-178.7109375,0.0
1690406724.5917678,-137.20703125,-28.3203125,-49.8046875,-149.4140625,0.0
1690406724.5958452,110.3515625,-20.5078125,-56.15234375,78.125,0.0
1690406724.5997336,100.09765625,-24.90234375,-52.734375,95.21484375,0.0
1690406724.603622,-145.5078125,-36.62109375,-44.43359375,-132.32421875,0.0
1690406724.6075106,-195.3125,-37.59765625,-49.31640625,-207.51953125,0.0
1690406724.611399,40.0390625,-24.4140625,-63.96484375,12.6953125,0.0
1690406724.6152875,147.4609375,-30.2734375,-66.89453125,134.765625,0.0
1690406724.619176,-93.75,-45.8984375,-52.734375,-87.40234375,0.0
1690406724.6230645,-221.6796875,-54.6875,-49.8046875,-230.46875,0.0
1690406724.626953,-31.25,-30.76171875,-60.05859375,-61.5234375,0.0
1690406724.6308415,145.99609375,-25.390625,-64.94140625,125.0,0.0
1690406724.6347299,-31.25,-51.26953125,-56.640625,-24.4140625,0.0
1690406724.6386185,-208.984375,-38.0859375,-54.19921875,-217.7734375,0.0
1690406724.642689,-83.0078125,-19.53125,-65.4296875,-116.2109375,0.0
1690406724.6465774,141.11328125,-25.390625,-67.3828125,113.76953125,0.0
1690406724.650466,44.921875,-48.828125,-63.96484375,54.6875,0.0
1690406724.6543546,-170.41015625,-42.48046875,-62.5,-160.64453125,0.0
1690406724.658243,-145.01953125,-39.55078125,-54.19921875,-154.296875,0.0
1690406724.6621315,83.0078125,-22.94921875,-46.875,64.453125,0.0
1690406724.66602,101.07421875,-17.08984375,-39.55078125,108.3984375,0.0
1690406724.6699085,-139.16015625,-35.64453125,-35.15625,-121.58203125,0.0
1690406724.673797,-201.66015625,-42.48046875,-53.22265625,-220.21484375,0.0
1690406724.6776855,19.04296875,-37.109375,-70.3125,-16.6015625,0.0
1690406724.681574,142.08984375,-35.15625,-58.10546875,131.34765625,0.0
1690406724.6854625,-88.37890625,-46.38671875,-41.50390625,-66.89453125,0.0
1690406724.6895936,-228.515625,-51.26953125,-48.828125,-213.8671875,0.0
1690406724.6934822,-27.83203125,-30.76171875,-52.734375,-39.0625,0.0
1690406724.6973708,169.921875,-18.06640625,-58.59375,146.97265625,0.0
1690406724.7012591,-15.13671875,-47.36328125,-61.5234375,-12.20703125,0.0
1690406724.7051477,-219.23828125,-66.89453125,-65.4296875,-218.26171875,0.0
1690406724.7090364,-107.421875,-47.8515625,-69.3359375,-128.41796875,0.0
1690406724.7129247,131.34765625,-22.4609375,-59.5703125,101.07421875,0.0
1690406724.7168133,52.734375,-25.390625,-52.24609375,55.6640625,0.0
1690406724.720702,-188.96484375,-52.24609375,-53.7109375,-167.96875,0.0
1690406724.7245905,-175.29296875,-54.19921875,-54.6875,-180.6640625,0.0
1690406724.728479,65.91796875,-27.83203125,-51.26953125,39.0625,0.0
1690406724.7323675,108.88671875,-38.57421875,-45.41015625,102.5390625,0.0
1690406724.7365022,-127.9296875,-53.22265625,-47.8515625,-110.3515625,0.0
1690406724.7403908,-212.40234375,-35.64453125,-54.6875,-205.56640625,0.0
1690406724.7442794,16.11328125,-17.578125,-63.4765625,-7.32421875,0.0
1690406724.7481678,154.78515625,-17.08984375,-68.359375,140.13671875,0.0
1690406724.7520564,-71.77734375,-44.43359375,-59.5703125,-59.08203125,0.0
1690406724.755945,-221.6796875,-59.08203125,-56.15234375,-222.65625,0.0
1690406724.7598336,-41.9921875,-30.76171875,-57.12890625,-64.453125,0.0
1690406724.7637222,159.1796875,-23.92578125,-53.7109375,151.85546875,0.0
1690406724.7676108,-12.6953125,-54.6875,-51.7578125,28.3203125,0.0
1690406724.7714992,-222.16796875,-67.3828125,-58.10546875,-184.5703125,0.0
1690406724.7753878,-116.2109375,-43.9453125,-60.05859375,-130.859375,0.0
1690406724.7792764,129.39453125,-39.55078125,-60.546875,90.33203125,0.0
1690406724.7833934,83.49609375,-44.43359375,-55.6640625,83.49609375,0.0
1690406724.787282,-150.390625,-49.8046875,-44.921875,-144.04296875,0.0
1690406724.7911706,-184.5703125,-60.546875,-66.89453125,-200.1953125,0.0
1690406724.7950592,54.6875,-41.9921875,-70.3125,32.71484375,0.0
1690406724.7989478,119.140625,-30.2734375,-59.08203125,129.39453125,0.0
1690406724.8028364,-129.8828125,-45.8984375,-62.01171875,-98.6328125,0.0
1690406724.806725,-212.40234375,-48.33984375,-62.01171875,-217.7734375,0.0
1690406724.8106136,14.16015625,-28.80859375,-57.12890625,-19.53125,0.0
1690406724.8145022,161.62109375,-34.1796875,-52.734375,153.80859375,0.0
1690406724.8183906,-50.29296875,-47.36328125,-56.15234375,-35.15625,0.0
1690406724.8222792,-205.56640625,-53.22265625,-54.6875,-212.40234375,0.0
1690406724.8261678,-48.33984375,-45.41015625,-51.7578125,-79.58984375,0.0
1690406724.8302755,169.43359375,-24.4140625,-54.19921875,129.8828125,0.0
1690406724.8341641,34.1796875,-26.85546875,-46.875,30.2734375,0.0
1690406724.8380527,-183.10546875,-49.31640625,-40.0390625,-185.05859375,0.0
1690406724.8419414,-125.0,-61.5234375,-43.45703125,-146.484375,0.0
1690406724.84583,102.5390625,-48.33984375,-55.6640625,76.171875,0.0
1690406724.8497186,77.1484375,-36.62109375,-63.4765625,77.63671875,0.0
1690406724.8536072,-165.52734375,-39.0625,-50.78125,-151.85546875,0.0
1690406724.857496,-200.68359375,-46.38671875,-44.921875,-213.8671875,0.0
1690406724.8613846,36.62109375,-38.0859375,-53.7109375,2.9296875,0.0
1690406724.8652732,137.6953125,-26.85546875,-52.734375,115.234375,0.0
1690406724.8691618,-101.5625,-40.52734375,-50.78125,-98.6328125,0.0
1690406724.8730505,-217.28515625,-40.52734375,-52.24609375,-221.6796875,0.0
1690406724.8771496,-12.20703125,-24.4140625,-51.26953125,-45.41015625,0.0
1690406724.8810382,154.78515625,-26.3671875,-57.6171875,130.859375,0.0
1690406724.8849268,-46.38671875,-35.64453125,-54.19921875,-28.3203125,0.0
1690406724.8888156,-227.5390625,-48.33984375,-52.24609375,-212.40234375,0.0
1690406724.8927042,-77.1484375,-55.17578125,-57.12890625,-101.07421875,0.0
1690406724.8965929,164.55078125,-33.69140625,-55.6640625,130.859375,0.0
1690406724.9004815,61.03515625,-32.71484375,-51.26953125,61.5234375,0.0
1690406724.90437,-185.05859375,-51.26953125,-48.33984375,-171.875,0.0
1690406724.908259,-130.859375,-22.94921875,-42.96875,-154.296875,0.0
1690406724.9121475,137.6953125,4.39453125,-48.33984375,73.73046875,0.0
1690406724.9160361,145.99609375,-16.6015625,-57.12890625,112.79296875,0.0
1690406724.9199247,-88.37890625,-44.921875,-53.22265625,-107.91015625,0.0
1690406724.924012,-143.06640625,-43.45703125,-55.6640625,-197.265625,0.0
1690406724.9279008,83.984375,-26.3671875,-64.453125,20.5078125,0.0
1690406724.9317894,190.4296875,-29.78515625,-69.82421875,157.2265625,0.0
1690406724.935678,-50.78125,-35.64453125,-70.3125,-70.3125,0.0
1690406724.9395669,-146.484375,-32.2265625,-58.10546875,-184.5703125,0.0
1690406724.9434555,49.8046875,-35.64453125,-53.22265625,0.9765625,0.0
1690406724.947344,192.3828125,-44.43359375,-56.15234375,149.4140625,0.0
1690406724.951233,15.625,-46.38671875,-40.0390625,12.6953125,0.0
1690406724.9551215,-181.15234375,-46.875,-48.33984375,-198.2421875,0.0
1690406724.9590101,-66.89453125,-20.99609375,-66.40625,-113.76953125,0.0
1690406724.962899,168.9453125,-6.34765625,-72.265625,120.60546875,0.0
1690406724.9667876,74.70703125,-28.80859375,-71.77734375,50.78125,0.0
1690406724.9708633,-159.66796875,-25.87890625,-56.640625,-172.36328125,0.0
1690406724.974752,-145.01953125,-25.390625,-56.15234375,-175.29296875,0.0
1690406724.9786406,88.37890625,-28.3203125,-67.87109375,41.50390625,0.0
1690406724.9825294,127.44140625,-25.390625,-62.98828125,113.28125,0.0
1690406724.986418,-112.3046875,-26.85546875,-43.9453125,-100.09765625,0.0
1690406724.9903069,-200.1953125,-37.59765625,-45.8984375,-204.58984375,0.0
1690406724.9941955,13.671875,-33.69140625,-64.453125,-13.671875,0.0
1690406724.9980843,159.66796875,-13.18359375,-65.4296875,131.34765625,0.0
1690406725.001973,-68.359375,-30.76171875,-61.5234375,-66.89453125,0.0
1690406725.0058615,-232.91015625,-48.33984375,-55.6640625,-228.02734375,0.0
1690406725.0097504,-41.50390625,-23.92578125,-56.15234375,-69.3359375,0.0
1690406725.013639,176.26953125,-14.16015625,-54.6875,145.01953125,0.0
1690406725.0177064,7.32421875,-30.2734375,-49.31640625,18.5546875,0.0
1690406725.021595,-210.44921875,-41.50390625,-53.22265625,-201.66015625,0.0
1690406725.0254838,-116.2109375,-34.66796875,-57.12890625,-133.30078125,0.0
1690406725.0293725,132.8125,-14.6484375,-60.05859375,107.421875,0.0
1690406725.0332613,94.7265625,-5.37109375,-50.29296875,98.14453125,0.0
1690406725.0371501,-155.76171875,-29.78515625,-49.8046875,-130.37109375,0.0
1690406725.0410388,-183.59375,-59.08203125,-71.2890625,-182.6171875,0.0
1690406725.0449276,68.359375,-34.1796875,-60.546875,37.59765625,0.0
1690406725.0488162,128.90625,-18.5546875,-46.875,129.39453125,0.0
1690406725.052705,-116.69921875,-39.55078125,-60.05859375,-105.46875,0.0
1690406725.0565937,-203.61328125,-41.50390625,-66.89453125,-229.4921875,0.0
1690406725.0604825,10.7421875,-26.85546875,-65.91796875,-20.5078125,0.0
1690406725.0646102,148.92578125,-27.83203125,-65.4296875,145.5078125,0.0
1690406725.0684988,-68.84765625,-45.41015625,-62.98828125,-41.015625,0.0
1690406725.0723877,-229.00390625,-44.921875,-56.640625,-211.9140625,0.0
1690406725.0762765,-60.546875,-43.45703125,-55.17578125,-79.58984375,0.0
1690406725.0801651,160.15625,-31.73828125,-54.19921875,133.7890625,0.0
1690406725.084054,21.97265625,-26.3671875,-41.50390625,41.50390625,0.0
1690406725.0879428,-195.80078125,-37.59765625,-45.8984375,-182.12890625,0.0
1690406725.0918314,-128.41796875,-36.62109375,-51.26953125,-145.01953125,0.0
1690406725.0957203,111.328125,-31.73828125,-51.7578125,108.88671875,0.0
1690406725.0996091,86.42578125,-30.76171875,-52.734375,120.60546875,0.0
1690406725.1034977,-145.99609375,-32.2265625,-56.15234375,-128.90625,0.0
1690406725.1073866,-175.29296875,-38.0859375,-58.59375,-186.5234375,0.0
1690406725.1115048,62.01171875,-32.2265625,-51.7578125,37.59765625,0.0
1690406725.1153936,141.11328125,-22.94921875,-48.828125,134.27734375,0.0
1690406725.1192825,-104.98046875,-36.1328125,-50.78125,-89.35546875,0.0
1690406725.1231713,-219.23828125,-38.57421875,-49.31640625,-212.890625,0.0
1690406725.12706,-6.8359375,-22.4609375,-53.22265625,-21.97265625,0.0
1690406725.1309488,172.36328125,-22.4609375,-50.29296875,161.1328125,0.0
1690406725.1348376,-38.0859375,-35.64453125,-40.0390625,-11.23046875,0.0
1690406725.1387265,-225.5859375,-47.8515625,-58.10546875,-216.796875,0.0
1690406725.1426153,-77.63671875,-34.1796875,-67.87109375,-100.5859375,0.0
1690406725.146504,153.3203125,-25.87890625,-55.17578125,135.7421875,0.0
1690406725.1503928,42.96875,-31.25,-52.24609375,53.22265625,0.0
1690406725.1542816,-192.87109375,-49.31640625,-54.6875,-179.19921875,0.0
1690406725.1583908,-149.4140625,-53.7109375,-65.91796875,-167.48046875,0.0
1690406725.1622796,106.4453125,-25.87890625,-66.40625,69.3359375,0.0
1690406725.1661685,113.76953125,-19.04296875,-58.59375,103.515625,0.0
1690406725.1700573,-127.9296875,-48.828125,-58.10546875,-132.32421875,0.0
1690406725.1739461,-187.5,-49.31640625,-64.94140625,-203.125,0.0
1690406725.177835,42.48046875,-12.20703125,-69.3359375,12.20703125,0.0
1690406725.1817238,152.34375,-6.34765625,-63.96484375,127.44140625,0.0
1690406725.1856124,-86.9140625,-31.73828125,-56.15234375,-79.58984375,0.0
1690406725.1895013,-202.63671875,-41.015625,-46.875,-210.44921875,0.0
1690406725.1933901,7.8125,-25.87890625,-42.48046875,-26.85546875,0.0
1690406725.197279,178.22265625,-17.08984375,-46.38671875,156.73828125,0.0
1690406725.2011678,-22.94921875,-36.1328125,-45.41015625,-1.46484375,0.0
1690406725.2052684,-212.890625,-43.9453125,-39.0625,-200.68359375,0.0
1690406725.2091572,-85.9375,-29.78515625,-41.50390625,-101.5625,0.0
1690406725.213046,149.4140625,-25.390625,-51.26953125,128.90625,0.0
1690406725.216935,56.640625,-41.9921875,-56.15234375,69.3359375,0.0
1690406725.2208238,-192.87109375,-63.4765625,-55.17578125,-164.0625,0.0
1690406725.2247126,-165.0390625,-53.7109375,-48.828125,-165.52734375,0.0
1690406725.2286015,95.703125,-38.0859375,-50.78125,69.3359375,0.0
1690406725.2324903,104.00390625,-59.08203125,-61.03515625,114.74609375,0.0
1690406725.2363791,-145.99609375,-60.546875,-60.546875,-113.76953125,0.0
1690406725.240268,-203.125,-40.52734375,-57.6171875,-211.42578125,0.0
1690406725.2441568,27.83203125,-35.15625,-57.6171875,-5.37109375,0.0
1690406725.2480457,147.4609375,-36.62109375,-57.6171875,141.11328125,0.0
1690406725.2521372,-91.796875,-45.41015625,-55.6640625,-63.96484375,0.0
1690406725.256026,-219.23828125,-49.8046875,-55.17578125,-220.703125,0.0
1690406725.2599149,-26.3671875,-53.22265625,-52.24609375,-53.22265625,0.0
1690406725.2638037,162.109375,-44.921875,-48.33984375,154.78515625,0.0
1690406725.2676926,-3.41796875,-39.0625,-41.50390625,18.5546875,0.0
1690406725.2715814,-193.84765625,-46.875,-37.109375,-187.98828125,0.0
1690406725.2754703,-96.19140625,-34.1796875,-53.7109375,-124.0234375,0.0
1690406725.2793593,136.23046875,-14.16015625,-60.546875,102.5390625,0.0
1690406725.2832482,83.0078125,-17.578125,-48.828125,76.171875,0.0
1690406725.287137,-146.97265625,-38.0859375,-43.45703125,-152.83203125,0.0
1690406725.2910259,-151.85546875,-41.9921875,-46.875,-184.5703125,0.0
1690406725.2949147,91.30859375,-11.71875,-41.015625,46.38671875,0.0
1690406725.298997,143.06640625,-16.11328125,-38.0859375,127.9296875,0.0
1690406725.3028858,-114.74609375,-71.77734375,-47.36328125,-111.81640625,0.0
1690406725.3067749,-207.03125,-69.3359375,-46.875,-221.6796875,0.0
1690406725.3106637,1.953125,-27.34375,-49.8046875,-20.99609375,0.0
1690406725.3145525,148.4375,-20.99609375,-60.546875,137.6953125,0.0
1690406725.3184414,-69.82421875,-37.59765625,-59.5703125,-50.78125,0.0
1690406725.3223305,-222.65625,-47.8515625,-54.6875,-210.9375,0.0
1690406725.3262193,-41.50390625,-29.78515625,-55.6640625,-55.6640625,0.0
1690406725.3301082,159.66796875,-0.9765625,-55.6640625,142.08984375,0.0
1690406725.333997,4.8828125,-23.92578125,-55.6640625,17.578125,0.0
1690406725.337886,-209.47265625,-48.33984375,-57.12890625,-199.70703125,0.0
1690406725.341775,-136.23046875,-36.62109375,-58.10546875,-157.71484375,0.0
1690406725.3458478,94.23828125,-22.94921875,-55.17578125,80.078125,0.0
1690406725.349737,61.03515625,-40.0390625,-54.6875,79.58984375,0.0
1690406725.3536258,-147.4609375,-59.5703125,-49.8046875,-134.765625,0.0
1690406725.3575149,-157.2265625,-40.52734375,-44.921875,-169.921875,0.0
1690406725.3614037,54.6875,-28.3203125,-52.24609375,29.78515625,0.0
1690406725.3652925,107.421875,-33.203125,-57.6171875,113.76953125,0.0
1690406725.3691816,-131.8359375,-48.33984375,-57.6171875,-93.75,0.0
1690406725.3730705,-221.6796875,-49.31640625,-52.734375,-208.984375,0.0
1690406725.3769593,-1.953125,-33.203125,-52.734375,-26.85546875,0.0
1690406725.3808484,158.69140625,-33.69140625,-62.01171875,141.6015625,0.0
1690406725.3847373,-64.453125,-52.734375,-63.4765625,-42.96875,0.0
1690406725.388626,-225.5859375,-59.5703125,-53.7109375,-219.23828125,0.0
1690406725.3926928,-60.05859375,-36.1328125,-48.33984375,-81.54296875,0.0
1690406725.3965816,146.484375,-25.390625,-50.29296875,133.7890625,0.0
1690406725.4004707,17.578125,-40.0390625,-48.33984375,38.0859375,0.0
1690406725.4043596,-201.66015625,-40.0390625,-48.828125,-188.96484375,0.0
1690406725.4082487,-145.99609375,-36.1328125,-52.24609375,-167.48046875,0.0
1690406725.4121375,100.5859375,-34.1796875,-59.08203125,63.96484375,0.0
1690406725.4160266,84.47265625,-36.1328125,-66.40625,87.40234375,0.0
1690406725.4199154,-146.484375,-36.1328125,-67.87109375,-151.85546875,0.0
1690406725.4238043,-184.5703125,-32.71484375,-63.4765625,-218.75,0.0
1690406725.4276934,35.64453125,-24.90234375,-62.01171875,2.44140625,0.0
1690406725.4315822,141.11328125,-24.4140625,-63.4765625,114.2578125,0.0
1690406725.4354713,-87.890625,-30.76171875,-53.22265625,-93.75,0.0
1690406725.4395974,-223.14453125,-43.45703125,-58.10546875,-232.91015625,0.0
1690406725.4434865,-33.203125,-53.22265625,-69.82421875,-59.5703125,0.0
1690406725.4473753,146.484375,-38.0859375,-71.77734375,129.39453125,0.0
1690406725.4512644,-32.2265625,-29.296875,-58.59375,-24.90234375,0.0
1690406725.4551532,-211.9140625,-46.38671875,-58.59375,-220.703125,0.0
1690406725.4590423,-86.42578125,-41.50390625,-62.98828125,-114.2578125,0.0
1690406725.4629312,134.765625,-22.4609375,-63.4765625,110.83984375,0.0
1690406725.4668202,31.73828125,-34.1796875,-66.40625,37.109375,0.0
1690406725.4707093,-186.03515625,-45.8984375,-61.5234375,-182.12890625,0.0
1690406725.4745982,-160.15625,-42.96875,-62.5,-177.734375,0.0
1690406725.4784873,80.078125,-22.94921875,-63.4765625,48.33984375,0.0
1690406725.482376,108.88671875,-11.71875,-56.15234375,101.5625,0.0
1690406725.4864929,-132.32421875,-36.62109375,-50.78125,-127.44140625,0.0
1690406725.490382,-199.70703125,-42.96875,-58.10546875,-225.09765625,0.0
1690406725.494271,22.94921875,-18.5546875,-57.12890625,-9.765625,0.0
1690406725.4981601,140.13671875,-7.8125,-49.8046875,134.765625,0.0
1690406725.502049,-92.28515625,-23.4375,-57.12890625,-75.68359375,0.0
1690406725.505938,-229.4921875,-39.55078125,-60.05859375,-224.12109375,0.0
1690406725.5098271,-38.57421875,-32.71484375,-57.6171875,-61.5234375,0.0
1690406725.513716,150.390625,-19.53125,-52.734375,131.8359375,0.0
1690406725.517605,-41.9921875,-36.62109375,-50.29296875,-27.83203125,0.0
1690406725.5214942,-245.60546875,-57.6171875,-60.05859375,-239.2578125,0.0
1690406725.525383,-111.81640625,-44.43359375,-64.94140625,-148.92578125,0.0
1690406725.529272,131.8359375,-32.2265625,-61.5234375,90.33203125,0.0
1690406725.5333798,47.8515625,-40.0390625,-67.3828125,46.38671875,0.0
1690406725.5372689,-188.96484375,-55.6640625,-72.265625,-202.63671875,0.0
1690406725.541158,-173.33984375,-52.24609375,-65.91796875,-213.37890625,0.0
1690406725.545047,67.3828125,-30.76171875,-56.15234375,34.66796875,0.0
1690406725.5489361,109.375,-31.25,-55.17578125,105.46875,0.0
1690406725.552825,-121.58203125,-49.31640625,-61.03515625,-113.28125,0.0
1690406725.556714,-203.125,-56.640625,-63.96484375,-205.078125,0.0
1690406725.5606031,5.859375,-41.50390625,-71.2890625,-16.6015625,0.0
1690406725.5644922,133.30078125,-34.1796875,-72.265625,139.6484375,0.0
1690406725.5683813,-97.16796875,-46.38671875,-63.4765625,-51.26953125,0.0
1690406725.5722704,-241.69921875,-53.22265625,-60.546875,-234.375,0.0
1690406725.5761592,-71.77734375,-38.57421875,-57.6171875,-91.30859375,0.0
1690406725.580258,151.3671875,8.30078125,-39.0625,143.5546875,0.0
1690406725.584147,-5.37109375,-32.2265625,-44.43359375,19.04296875,0.0
1690406725.588036,-236.328125,-94.7265625,-72.265625,-219.23828125,0.0
1690406725.5919251,-129.8828125,-60.546875,-64.94140625,-158.69140625,0.0
1690406725.5958142,96.19140625,-29.78515625,-65.4296875,66.40625,0.0
1690406725.5997033,52.24609375,-35.15625,-66.40625,58.10546875,0.0
1690406725.6035924,-174.31640625,-69.82421875,-61.03515625,-163.0859375,0.0
1690406725.6074815,-174.31640625,-29.78515625,-39.55078125,-179.6875,0.0
1690406725.6113706,78.61328125,15.625,-32.2265625,61.03515625,0.0
1690406725.6152596,112.3046875,-27.34375,-70.80078125,105.95703125,0.0
1690406725.6191487,-139.16015625,-49.8046875,-67.87109375,-124.51171875,0.0
1690406725.6230378,-230.46875,-55.6640625,-55.6640625,-235.3515625,0.0
1690406725.6271296,-5.37109375,-40.0390625,-54.6875,-42.48046875,0.0
1690406725.6310186,151.3671875,-17.578125,-48.33984375,127.44140625,0.0
1690406725.6349077,-75.1953125,-32.2265625,-44.43359375,-53.22265625,0.0
1690406725.6387968,-243.1640625,-42.96875,-51.7578125,-230.46875,0.0
1690406725.642686,-83.49609375,-33.203125,-49.8046875,-99.12109375,0.0
1690406725.646575,136.71875,-37.109375,-51.7578125,123.046875,0.0
1690406725.650464,8.7890625,-45.8984375,-59.08203125,29.296875,0.0
1690406725.6543531,-217.28515625,-51.7578125,-56.15234375,-191.89453125,0.0
1690406725.6582422,-151.85546875,-45.8984375,-58.10546875,-160.64453125,0.0
1690406725.6621313,104.98046875,-24.4140625,-57.6171875,75.1953125,0.0
1690406725.6660204,91.796875,-21.484375,-55.17578125,95.703125,0.0
1690406725.6699095,-162.59765625,-43.9453125,-56.640625,-150.390625,0.0
1690406725.6739938,-208.984375,-46.875,-58.59375,-230.46875,0.0
1690406725.677883,33.203125,-35.64453125,-52.24609375,-1.46484375,0.0
1690406725.681772,134.27734375,-32.2265625,-44.921875,136.71875,0.0
1690406725.6856613,-103.02734375,-42.96875,-48.828125,-82.03125,0.0
1690406725.6895504,-218.75,-43.9453125,-49.8046875,-218.75,0.0
1690406725.6934395,-17.08984375,-29.296875,-50.78125,-27.83203125,0.0
1690406725.6973286,152.34375,-34.1796875,-50.29296875,158.203125,0.0
1690406725.7012177,-41.50390625,-41.50390625,-43.45703125,-13.671875,0.0
1690406725.7051067,-220.703125,-41.015625,-49.31640625,-216.796875,0.0
1690406725.708996,-81.54296875,-39.55078125,-59.08203125,-105.46875,0.0
1690406725.7128851,147.4609375,-28.80859375,-58.59375,127.9296875,0.0
1690406725.7167742,42.48046875,-26.3671875,-50.78125,58.10546875,0.0
1690406725.7208455,-192.87109375,-26.85546875,-42.48046875,-172.8515625,0.0
1690406725.7247348,-155.76171875,-32.71484375,-41.015625,-161.62109375,0.0
1690406725.7286239,88.8671875,-25.87890625,-50.29296875,73.2421875,0.0
1690406725.732513,97.65625,-31.25,-55.6640625,104.98046875,0.0
1690406725.7364023,-139.6484375,-55.6640625,-51.7578125,-124.51171875,0.0
1690406725.7402914,-206.0546875,-52.24609375,-50.29296875,-213.37890625,0.0
1690406725.7441804,30.76171875,-32.71484375,-52.734375,1.46484375,0.0
1690406725.7480695,146.97265625,-25.390625,-48.33984375,146.97265625,0.0
1690406725.7519588,-93.26171875,-29.296875,-43.9453125,-69.82421875,0.0
1690406725.755848,-217.7734375,-47.8515625,-51.26953125,-222.16796875,0.0
1690406725.759737,-26.3671875,-38.0859375,-55.6640625,-49.8046875,0.0
1690406725.763626,153.80859375,-7.8125,-59.08203125,144.53125,0.0
1690406725.7676923,-23.92578125,-33.69140625,-61.03515625,-11.23046875,0.0
1690406725.7715814,-208.984375,-57.12890625,-51.26953125,-211.42578125,0.0
1690406725.7754707,-93.26171875,-34.1796875,-56.15234375,-119.62890625,0.0
1690406725.7793598,137.20703125,-11.71875,-56.640625,112.79296875,0.0
1690406725.783249,52.24609375,-24.90234375,-52.24609375,64.453125,0.0
1690406725.7871382,-185.05859375,-54.6875,-55.6640625,-168.9453125,0.0
1690406725.7910273,-149.90234375,-41.50390625,-53.7109375,-184.08203125,0.0
1690406725.7949166,103.02734375,-14.16015625,-54.19921875,49.31640625,0.0
1690406725.7988057,133.30078125,-25.87890625,-49.8046875,121.58203125,0.0
1690406725.8026948,-108.88671875,-43.9453125,-44.921875,-110.3515625,0.0
1690406725.8065841,-183.59375,-48.828125,-48.33984375,-210.44921875,0.0
1690406725.8104732,47.8515625,-30.2734375,-56.15234375,8.30078125,0.0
1690406725.8145993,184.5703125,-13.671875,-62.98828125,157.71484375,0.0
1690406725.8184886,-50.29296875,-24.4140625,-61.03515625,-51.7578125,0.0
1690406725.8223777,-216.30859375,-36.1328125,-54.19921875,-223.6328125,0.0
1690406725.826267,-41.50390625,-32.2265625,-46.38671875,-70.80078125,0.0
1690406725.830156,163.57421875,-15.625,-41.015625,145.01953125,0.0
1690406725.8340454,-0.48828125,-31.73828125,-47.8515625,17.08984375,0.0
1690406725.8379345,-209.9609375,-53.22265625,-59.5703125,-208.49609375,0.0
1690406725.8418238,-123.046875,-49.31640625,-71.2890625,-155.2734375,0.0
1690406725.845713,133.30078125,-29.296875,-63.4765625,90.8203125,0.0
1690406725.8496022,83.0078125,-30.2734375,-54.19921875,78.61328125,0.0
1690406725.8534913,-180.17578125,-51.7578125,-71.2890625,-169.43359375,0.0
1690406725.8573806,-173.828125,-51.26953125,-59.08203125,-193.359375,0.0
1690406725.861497,64.453125,-52.734375,-54.19921875,36.62109375,0.0
1690406725.865386,114.74609375,-38.57421875,-67.87109375,114.2578125,0.0
1690406725.8692753,-124.0234375,-37.59765625,-65.4296875,-115.234375,0.0
1690406725.8731644,-224.12109375,-45.8984375,-66.40625,-236.328125,0.0
1690406725.8770537,-19.04296875,-44.921875,-60.05859375,-35.64453125,0.0
1690406725.880943,142.08984375,-47.36328125,-52.24609375,141.11328125,0.0
1690406725.8848321,-61.5234375,-41.9921875,-55.17578125,-47.36328125,0.0
1690406725.8887215,-231.93359375,-40.0390625,-56.640625,-223.6328125,0.0
1690406725.8926108,-60.546875,-26.3671875,-44.921875,-73.73046875,0.0
1690406725.8964999,151.85546875,-27.34375,-51.26953125,143.5546875,0.0
1690406725.9003892,12.20703125,-41.9921875,-62.01171875,28.80859375,0.0
1690406725.9042783,-203.61328125,-49.31640625,-55.6640625,-194.3359375,0.0
1690406725.908384,-138.18359375,-48.33984375,-56.640625,-153.3203125,0.0
1690406725.9122734,97.65625,-33.69140625,-62.5,83.49609375,0.0
1690406725.9161625,67.87109375,-39.55078125,-62.98828125,90.8203125,0.0
1690406725.9200518,-162.59765625,-58.59375,-62.98828125,-143.06640625,0.0
1690406725.9239411,-182.12890625,-46.875,-57.6171875,-193.84765625,0.0
1690406725.9278305,53.22265625,-21.484375,-54.6875,26.3671875,0.0
1690406725.9317195,131.8359375,-31.73828125,-49.8046875,136.71875,0.0
1690406725.9356089,-115.72265625,-48.828125,-46.38671875,-76.66015625,0.0
1690406725.9394982,-228.02734375,-52.24609375,-54.6875,-217.7734375,0.0
1690406725.9433875,-14.6484375,-38.0859375,-61.03515625,-34.66796875,0.0
1690406725.9472766,156.73828125,-35.64453125,-55.17578125,148.92578125,0.0
1690406725.951166,-33.69140625,-51.26953125,-48.33984375,-20.5078125,0.0
1690406725.955262,-195.80078125,-41.9921875,-44.43359375,-197.75390625,0.0
1690406725.9591513,-59.08203125,-32.2265625,-52.734375,-86.9140625,0.0
1690406725.9630406,156.25,-28.3203125,-62.98828125,136.23046875,0.0
1690406725.96693,45.41015625,-28.3203125,-53.22265625,59.5703125,0.0
1690406725.9708192,-170.41015625,-33.203125,-50.29296875,-166.015625,0.0
1690406725.9747086,-133.30078125,-31.25,-51.26953125,-154.78515625,0.0
1690406725.9785979,101.5625,-27.34375,-49.31640625,75.1953125,0.0
1690406725.982487,99.609375,-32.71484375,-57.12890625,113.76953125,0.0
1690406725.9863763,-141.11328125,-53.22265625,-56.15234375,-123.53515625,0.0
1690406725.9902656,-182.6171875,-53.7109375,-54.19921875,-204.1015625,0.0
1690406725.994155,41.9921875,-24.4140625,-65.4296875,14.16015625,0.0
1690406725.9980443,140.625,-8.7890625,-59.08203125,145.5078125,0.0
1690406726.0021315,-87.890625,-25.87890625,-45.8984375,-62.98828125,0.0
1690406726.0060208,-212.890625,-33.69140625,-52.24609375,-220.21484375,0.0
1690406726.00991,-1.46484375,-8.7890625,-41.50390625,-31.25,0.0
1690406726.0137994,163.0859375,-0.48828125,-43.45703125,165.52734375,0.0
1690406726.0176888,-38.0859375,-32.71484375,-64.94140625,-17.08984375,0.0
1690406726.021578,-211.9140625,-54.19921875,-65.4296875,-208.0078125,0.0
1690406726.0254674,-99.12109375,-38.57421875,-62.98828125,-99.609375,0.0
1690406726.0293567,126.46484375,-25.87890625,-62.01171875,131.8359375,0.0
1690406726.033246,41.015625,-32.2265625,-64.453125,70.3125,0.0
1690406726.0371354,-186.5234375,-37.59765625,-60.05859375,-176.7578125,0.0
1690406726.0410247,-165.52734375,-46.38671875,-56.15234375,-185.546875,0.0
1690406726.044914,76.66015625,-34.66796875,-61.03515625,58.10546875,0.0
1690406726.0489972,104.4921875,-26.85546875,-63.96484375,115.72265625,0.0
1690406726.0528865,-125.48828125,-38.0859375,-55.17578125,-110.83984375,0.0
1690406726.0567758,-192.87109375,-47.36328125,-54.19921875,-210.9375,0.0
1690406726.0606651,26.3671875,-29.78515625,-58.10546875,-5.859375,0.0
1690406726.0645545,151.85546875,-19.04296875,-58.10546875,145.99609375,0.0
1690406726.0684438,-73.2421875,-42.48046875,-62.98828125,-66.89453125,0.0
1690406726.072333,-204.1015625,-52.734375,-62.5,-224.609375,0.0
1690406726.0762224,-26.85546875,-37.59765625,-63.4765625,-57.6171875,0.0
1690406726.0801117,150.87890625,-21.484375,-71.77734375,136.71875,0.0
1690406726.084001,-12.6953125,-46.875,-60.05859375,3.41796875,0.0
1690406726.0878906,-208.0078125,-54.6875,-49.31640625,-201.66015625,0.0
1690406726.09178,-106.93359375,-25.390625,-56.15234375,-127.9296875,0.0
1690406726.095849,136.23046875,-12.20703125,-54.19921875,114.74609375,0.0
1690406726.0997384,81.0546875,-20.01953125,-49.8046875,85.44921875,0.0
1690406726.1036277,-157.71484375,-36.62109375,-48.33984375,-141.6015625,0.0
1690406726.107517,-174.8046875,-39.0625,-53.7109375,-168.9453125,0.0
1690406726.1114063,59.08203125,-31.25,-64.453125,43.45703125,0.0
1690406726.1152956,111.328125,-28.80859375,-57.12890625,119.62890625,0.0
1690406726.1191852,-138.18359375,-51.26953125,-45.8984375,-102.05078125,0.0
1690406726.1230745,-224.609375,-44.921875,-44.43359375,-210.9375,0.0
1690406726.1269639,-13.18359375,-21.484375,-56.640625,-19.53125,0.0
1690406726.1308532,129.39453125,-27.34375,-62.01171875,139.16015625,0.0
1690406726.1347425,-76.66015625,-30.2734375,-52.24609375,-47.8515625,0.0
1690406726.1386318,-218.26171875,-30.76171875,-49.31640625,-216.30859375,0.0
1690406726.1426947,-50.29296875,-31.25,-62.98828125,-76.66015625,0.0
1690406726.146584,156.73828125,-33.203125,-64.94140625,144.04296875,0.0
1690406726.1504734,10.7421875,-41.015625,-51.26953125,36.62109375,0.0
1690406726.154363,-201.171875,-51.7578125,-57.12890625,-186.03515625,0.0
1690406726.1582522,-128.90625,-52.734375,-58.59375,-137.6953125,0.0
1690406726.1621416,96.6796875,-43.9453125,-58.59375,103.515625,0.0
1690406726.166031,64.94140625,-52.24609375,-66.40625,94.23828125,0.0
1690406726.1699204,-165.52734375,-71.77734375,-60.546875,-150.87890625,0.0
1690406726.1738098,-194.82421875,-72.75390625,-48.828125,-198.73046875,0.0
1690406726.177699,34.66796875,-45.41015625,-48.828125,34.66796875,0.0
1690406726.1815884,119.140625,-34.1796875,-54.19921875,137.6953125,0.0
1690406726.185478,-121.58203125,-41.015625,-62.01171875,-104.00390625,0.0
1690406726.189601,-221.19140625,-41.015625,-64.453125,-222.65625,0.0
1690406726.1934905,-7.32421875,-29.296875,-64.94140625,-29.296875,0.0
1690406726.1973798,158.203125,-22.94921875,-64.453125,140.13671875,0.0
1690406726.2012691,-49.8046875,-41.50390625,-55.6640625,-34.1796875,0.0
1690406726.2051587,-215.8203125,-45.41015625,-53.22265625,-213.8671875,0.0
1690406726.209048,-62.98828125,-28.80859375,-49.8046875,-83.49609375,0.0
1690406726.2129374,145.5078125,-25.87890625,-51.26953125,134.765625,0.0
1690406726.216827,28.80859375,-34.66796875,-53.22265625,50.78125,0.0
1690406726.2207162,-201.66015625,-45.8984375,-56.640625,-177.24609375,0.0
1690406726.2246058,-157.2265625,-48.828125,-57.6171875,-158.203125,0.0
1690406726.2284951,87.890625,-43.9453125,-63.96484375,71.77734375,0.0
1690406726.2323844,80.078125,-42.96875,-75.1953125,83.49609375,0.0
1690406726.2364984,-159.1796875,-47.8515625,-58.10546875,-143.5546875,0.0
1690406726.240388,-192.87109375,-46.875,-54.19921875,-202.1484375,0.0
1690406726.2442772,47.8515625,-35.15625,-72.75390625,19.53125,0.0
1690406726.2481668,134.27734375,-34.1796875,-70.80078125,136.71875,0.0
1690406726.2520561,-110.3515625,-49.31640625,-55.17578125,-81.54296875,0.0
1690406726.2559457,-225.09765625,-54.19921875,-58.59375,-230.46875,0.0
1690406726.259835,-19.53125,-28.80859375,-60.546875,-46.875,0.0
1690406726.2637246,158.203125,-22.4609375,-56.640625,147.94921875,0.0
1690406726.267614,-37.59765625,-44.43359375,-53.22265625,-14.16015625,0.0
1690406726.2715034,-222.16796875,-50.29296875,-50.29296875,-192.87109375,0.0
1690406726.2753928,-92.28515625,-40.52734375,-55.6640625,-99.609375,0.0
1690406726.2792823,122.55859375,-32.71484375,-59.5703125,114.2578125,0.0
1690406726.283387,24.90234375,-41.015625,-60.546875,53.7109375,0.0
1690406726.2872765,-190.4296875,-50.29296875,-62.5,-181.15234375,0.0
1690406726.291166,-166.9921875,-44.921875,-59.08203125,-185.05859375,0.0
1690406726.2950554,78.125,-43.45703125,-53.22265625,56.640625,0.0
1690406726.298945,118.1640625,-50.78125,-53.22265625,120.1171875,0.0
1690406726.3028343,-125.48828125,-53.7109375,-59.08203125,-111.81640625,0.0
1690406726.3067238,-212.40234375,-55.6640625,-69.3359375,-214.84375,0.0
1690406726.3106134,18.5546875,-34.66796875,-66.40625,-3.41796875,0.0
1690406726.3145027,145.01953125,-27.34375,-61.5234375,149.90234375,0.0
1690406726.3183923,-83.0078125,-56.640625,-62.5,-61.5234375,0.0
1690406726.3222818,-210.44921875,-56.15234375,-61.03515625,-220.21484375,0.0
1690406726.3261712,-24.4140625,-31.73828125,-63.96484375,-55.17578125,0.0
1690406726.3302672,169.43359375,-28.80859375,-69.3359375,146.484375,0.0
1690406726.3341568,-11.23046875,-46.875,-66.89453125,1.46484375,0.0
1690406726.3380463,-212.890625,-55.17578125,-62.01171875,-202.63671875,0.0
1690406726.3419356,-94.7265625,-51.7578125,-60.05859375,-119.140625,0.0
1690406726.3458252,134.27734375,-43.45703125,-63.4765625,109.86328125,0.0
1690406726.3497148,56.640625,-39.55078125,-61.03515625,75.1953125,0.0
1690406726.3536043,-176.7578125,-53.22265625,-57.6171875,-161.1328125,0.0
1690406726.3574936,-169.43359375,-58.59375,-56.15234375,-184.5703125,0.0
1690406726.3613832,75.68359375,-35.15625,-56.15234375,56.15234375,0.0
1690406726.3652728,124.0234375,-28.3203125,-61.5234375,124.51171875,0.0
1690406726.369162,-114.2578125,-50.29296875,-65.4296875,-109.86328125,0.0
1690406726.3730516,-203.61328125,-55.6640625,-67.3828125,-220.703125,0.0
1690406726.377141,11.71875,-42.96875,-63.96484375,-15.625,0.0
1690406726.3810306,145.99609375,-40.52734375,-63.4765625,145.5078125,0.0
1690406726.3849201,-85.44921875,-47.8515625,-62.5,-50.29296875,0.0
1690406726.3888097,-225.5859375,-49.8046875,-50.29296875,-217.7734375,0.0
1690406726.3926992,-42.48046875,-45.8984375,-49.8046875,-70.80078125,0.0
1690406726.3965888,142.08984375,-46.38671875,-64.453125,143.06640625,0.0
1690406726.4004784,-14.6484375,-48.828125,-59.5703125,16.11328125,0.0
1690406726.4043677,-210.44921875,-48.33984375,-50.78125,-198.2421875,0.0
1690406726.4082572,-115.72265625,-42.96875,-60.05859375,-134.27734375,0.0
1690406726.4121468,134.27734375,-21.97265625,-58.59375,103.515625,0.0
1690406726.4160364,92.28515625,-24.90234375,-56.640625,97.65625,0.0
1690406726.419926,-150.390625,-53.22265625,-56.15234375,-138.671875,0.0
1690406726.4240704,-166.9921875,-50.78125,-53.7109375,-182.12890625,0.0
1690406726.42796,73.73046875,-36.62109375,-58.10546875,45.41015625,0.0
1690406726.4318495,143.5546875,-36.1328125,-59.08203125,143.06640625,0.0
1690406726.435739,-108.88671875,-36.62109375,-58.59375,-80.56640625,0.0
1690406726.4396286,-217.7734375,-32.71484375,-63.4765625,-215.8203125,0.0
1690406726.4435182,4.39453125,-26.3671875,-80.078125,-36.62109375,0.0
1690406726.4474077,168.45703125,-29.78515625,-77.1484375,149.90234375,0.0
1690406726.4512973,-39.0625,-38.0859375,-55.6640625,-20.01953125,0.0
1690406726.4551868,-199.21875,-38.57421875,-54.6875,-211.9140625,0.0
1690406726.4590764,-49.31640625,-40.52734375,-59.08203125,-89.84375,0.0
1690406726.462966,165.0390625,-30.76171875,-59.5703125,139.6484375,0.0
1690406726.4668555,38.57421875,-39.0625,-58.59375,48.33984375,0.0
1690406726.4709246,-181.640625,-50.78125,-45.41015625,-179.6875,0.0
1690406726.4748144,-124.51171875,-44.43359375,-41.015625,-143.5546875,0.0
1690406726.478704,109.86328125,-33.203125,-53.7109375,89.35546875,0.0
1690406726.4825935,90.33203125,-33.69140625,-58.59375,100.09765625,0.0
1690406726.486483,-149.90234375,-47.36328125,-51.7578125,-128.90625,0.0
1690406726.4903727,-195.3125,-53.7109375,-49.8046875,-198.73046875,0.0
1690406726.4942622,42.96875,-37.109375,-48.33984375,20.5078125,0.0
1690406726.4981518,143.5546875,-19.53125,-48.33984375,145.99609375,0.0
1690406726.5020413,-100.5859375,-35.15625,-54.19921875,-79.1015625,0.0
1690406726.505931,-222.16796875,-49.8046875,-47.8515625,-223.6328125,0.0
1690406726.5098205,-22.4609375,-43.9453125,-52.734375,-36.1328125,0.0
1690406726.51371,150.87890625,-31.25,-60.546875,140.625,0.0
1690406726.5177708,-55.6640625,-36.1328125,-52.734375,-36.1328125,0.0
1690406726.5216603,-231.93359375,-58.10546875,-52.24609375,-216.796875,0.0
1690406726.5255501,-88.37890625,-47.36328125,-58.59375,-108.88671875,0.0
1690406726.5294397,132.8125,-18.06640625,-65.4296875,110.3515625,0.0
1690406726.5333292,34.1796875,-33.69140625,-64.453125,36.1328125,0.0
1690406726.5372188,-185.546875,-64.453125,-56.15234375,-191.40625,0.0
1690406726.5411084,-151.3671875,-47.36328125,-49.8046875,-177.734375,0.0
1690406726.544998,92.28515625,-15.13671875,-59.5703125,50.29296875,0.0
1690406726.5488877,120.1171875,-14.6484375,-60.05859375,103.02734375,0.0
1690406726.5527773,-140.625,-35.64453125,-53.7109375,-120.1171875,0.0
1690406726.5566669,-211.9140625,-47.36328125,-54.19921875,-215.8203125,0.0
1690406726.5605564,30.76171875,-31.25,-55.6640625,-6.34765625,0.0
1690406726.5646749,142.08984375,-34.1796875,-63.96484375,123.046875,0.0
1690406726.5685644,-84.47265625,-54.19921875,-66.40625,-82.51953125,0.0
1690406726.572454,-217.7734375,-55.17578125,-56.640625,-217.7734375,0.0
1690406726.5763438,-33.69140625,-48.828125,-60.05859375,-57.12890625,0.0
1690406726.5802333,171.875,-31.25,-61.5234375,147.94921875,0.0
1690406726.584123,-14.16015625,-39.0625,-57.6171875,11.71875,0.0
1690406726.5880127,-221.6796875,-63.96484375,-65.4296875,-208.49609375,0.0
1690406726.5919023,-105.95703125,-64.94140625,-72.265625,-136.71875,0.0
1690406726.5957918,110.83984375,-41.015625,-72.75390625,93.26171875,0.0
1690406726.5996814,50.78125,-38.57421875,-69.3359375,56.15234375,0.0
1690406726.6035712,-167.48046875,-42.48046875,-62.01171875,-172.8515625,0.0
1690406726.6074607,-168.9453125,-35.15625,-56.15234375,-191.40625,0.0
1690406726.6115725,73.2421875,-28.80859375,-51.26953125,46.875,0.0
1690406726.615462,115.234375,-41.015625,-53.22265625,121.58203125,0.0
1690406726.6193516,-119.62890625,-57.12890625,-60.05859375,-113.28125,0.0
1690406726.6232414,-201.171875,-51.26953125,-62.98828125,-223.14453125,0.0
1690406726.627131,8.30078125,-33.69140625,-65.4296875,-11.23046875,0.0
1690406726.6310208,144.53125,-23.4375,-63.96484375,144.04296875,0.0
1690406726.6349103,-82.03125,-37.109375,-63.4765625,-57.12890625,0.0
1690406726.6388,-232.421875,-48.33984375,-62.01171875,-228.515625,0.0
1690406726.6426897,-53.22265625,-38.0859375,-61.5234375,-75.68359375,0.0
1690406726.6465793,153.80859375,-23.4375,-56.15234375,150.87890625,0.0
1690406726.650469,3.41796875,-23.92578125,-47.36328125,20.01953125,0.0
1690406726.6543586,-199.21875,-34.66796875,-52.24609375,-203.61328125,0.0
1690406726.6584597,-104.00390625,-36.1328125,-54.19921875,-131.34765625,0.0
1690406726.6623492,139.16015625,-22.4609375,-50.29296875,112.3046875,0.0
1690406726.666239,101.07421875,-34.1796875,-55.17578125,95.21484375,0.0
1690406726.6701286,-137.6953125,-50.29296875,-58.10546875,-151.85546875,0.0
1690406726.6740184,-168.9453125,-38.0859375,-61.03515625,-187.5,0.0
1690406726.677908,81.0546875,-17.578125,-59.5703125,47.36328125,0.0
1690406726.6817977,155.2734375,-13.671875,-56.15234375,132.32421875,0.0
1690406726.6856873,-98.14453125,-34.66796875,-64.453125,-103.515625,0.0
1690406726.689577,-193.84765625,-41.50390625,-62.98828125,-224.12109375,0.0
1690406726.6934667,14.16015625,-44.921875,-68.84765625,-29.296875,0.0
1690406726.6973565,158.203125,-33.203125,-72.265625,134.765625,0.0
1690406726.701246,-45.41015625,-25.87890625,-62.98828125,-50.29296875,0.0
1690406726.705337,-201.171875,-34.1796875,-62.01171875,-232.91015625,0.0
1690406726.7092268,-55.17578125,-24.90234375,-71.2890625,-97.65625,0.0
1690406726.7131164,159.1796875,-27.34375,-72.75390625,123.046875,0.0
1690406726.7170062,27.34375,-41.9921875,-62.5,23.4375,0.0
1690406726.720896,-190.4296875,-58.10546875,-62.98828125,-194.82421875,0.0
1690406726.7247856,-129.39453125,-50.78125,-64.453125,-154.78515625,0.0
1690406726.7286754,104.00390625,-15.625,-60.05859375,78.61328125,0.0
1690406726.732565,79.58984375,-33.69140625,-58.10546875,87.890625,0.0
1690406726.7364547,-164.0625,-58.59375,-47.36328125,-139.6484375,0.0
1690406726.7403445,-200.1953125,-41.015625,-51.26953125,-204.58984375,0.0
1690406726.744234,32.71484375,-29.78515625,-58.59375,8.30078125,0.0
1690406726.748124,122.0703125,-30.76171875,-57.6171875,125.0,0.0
1690406726.7522066,-108.88671875,-48.33984375,-57.6171875,-88.8671875,0.0
1690406726.7560964,-215.33203125,-51.7578125,-52.24609375,-228.515625,0.0
1690406726.759986,-8.7890625,-30.76171875,-48.33984375,-37.109375,0.0
1690406726.7638757,157.71484375,-24.90234375,-59.08203125,145.5078125,0.0
1690406726.7677655,-44.921875,-39.0625,-62.01171875,-32.2265625,0.0
1690406726.7716553,-205.078125,-47.8515625,-48.828125,-210.44921875,0.0
1690406726.775545,-69.82421875,-41.015625,-60.05859375,-98.14453125,0.0
1690406726.7794347,142.08984375,-36.1328125,-73.2421875,121.09375,0.0
1690406726.7833245,36.62109375,-44.43359375,-60.05859375,47.8515625,0.0
1690406726.787214,-184.08203125,-54.19921875,-55.17578125,-177.734375,0.0
1690406726.7911038,-148.4375,-49.8046875,-60.05859375,-164.55078125,0.0
1690406726.7949936,97.16796875,-31.25,-59.5703125,78.125,0.0
1690406726.7990677,95.703125,-33.203125,-56.640625,117.1875,0.0
1690406726.8029575,-151.3671875,-54.6875,-55.6640625,-121.58203125,0.0
1690406726.806847,-189.453125,-53.22265625,-57.12890625,-198.2421875,0.0
1690406726.810737,31.73828125,-24.4140625,-57.6171875,15.625,0.0
1690406726.8146267,128.90625,-15.625,-54.19921875,136.71875,0.0
1690406726.8185165,-96.6796875,-48.828125,-48.828125,-76.171875,0.0
1690406726.8224063,-214.35546875,-58.59375,-51.7578125,-216.796875,0.0
1690406726.826296,-18.5546875,-23.92578125,-52.734375,-41.50390625,0.0
1690406726.8301857,170.41015625,-15.13671875,-52.734375,165.52734375,0.0
1690406726.8340755,-6.8359375,-25.390625,-46.875,5.37109375,0.0
1690406726.8379653,-187.98828125,-28.3203125,-44.43359375,-196.2890625,0.0
1690406726.841855,-84.47265625,-26.85546875,-47.36328125,-96.6796875,0.0
1690406726.8459198,130.37109375,-15.625,-55.6640625,123.046875,0.0
1690406726.8498096,56.640625,-31.73828125,-55.6640625,69.82421875,0.0
1690406726.8536994,-169.921875,-49.31640625,-50.78125,-166.50390625,0.0
1690406726.8575892,-151.3671875,-42.48046875,-53.7109375,-155.76171875,0.0
1690406726.861479,88.37890625,-37.59765625,-55.17578125,87.890625,0.0
1690406726.8653688,110.3515625,-43.45703125,-57.12890625,117.1875,0.0
1690406726.8692586,-138.671875,-59.5703125,-51.26953125,-115.72265625,0.0
1690406726.8731482,-201.66015625,-49.8046875,-49.8046875,-209.47265625,0.0
