time,TP9,AF7,AF8,TP10,Right AUX
1690406171.7598526,27.83203125,-27.83203125,-23.92578125,-35.15625,0.0
1690406171.7637455,552.734375,-27.34375,-26.3671875,95.21484375,0.0
1690406171.7676384,-44.921875,-32.2265625,-19.53125,-12.20703125,0.0
1690406171.7715313,-487.3046875,-41.50390625,-19.04296875,-123.046875,0.0
1690406171.7754245,-157.71484375,-43.9453125,-28.3203125,-77.63671875,0.0
1690406171.7793174,494.62890625,-34.1796875,-34.66796875,68.84765625,0.0
1690406171.7832103,151.85546875,-46.38671875,-40.0390625,16.11328125,0.0
1690406171.7871032,-481.4453125,-61.03515625,-36.1328125,-137.20703125,0.0
1690406171.790996,-346.6796875,-58.59375,-32.71484375,-117.1875,0.0
1690406171.7948892,322.75390625,-38.57421875,-39.0625,32.2265625,0.0
1690406171.798782,333.0078125,-33.203125,-39.0625,58.10546875,0.0
1690406171.802675,-383.7890625,-46.38671875,-31.25,-102.5390625,0.0
1690406171.806726,-436.5234375,-53.22265625,-33.203125,-143.06640625,0.0
1690406171.8106189,152.34375,-40.52734375,-38.0859375,-17.578125,0.0
1690406171.8145118,483.88671875,-30.76171875,-36.1328125,76.66015625,0.0
1690406171.818405,-214.35546875,-44.921875,-36.1328125,-68.84765625,0.0
1690406171.8222978,-480.46875,-50.78125,-46.875,-153.80859375,0.0
1690406171.8261907,-19.53125,-46.38671875,-52.734375,-58.10546875,0.0
1690406171.8300836,539.0625,-42.96875,-43.9453125,72.75390625,0.0
1690406171.8339767,-11.23046875,-51.7578125,-37.109375,-18.06640625,0.0
1690406171.8378696,-492.67578125,-62.01171875,-32.71484375,-127.44140625,0.0
1690406171.8417625,-210.9375,-50.29296875,-37.59765625,-103.515625,0.0
1690406171.8456554,458.984375,-33.69140625,-38.0859375,64.453125,0.0
1690406171.8495486,219.7265625,-35.64453125,-36.1328125,40.52734375,0.0
1690406171.8535903,-436.5234375,-38.57421875,-37.109375,-120.60546875,0.0
1690406171.8574831,-364.74609375,-40.52734375,-35.64453125,-128.90625,0.0
1690406171.861376,284.66796875,-41.50390625,-37.109375,18.06640625,0.0
1690406171.8652692,387.6953125,-39.0625,-38.0859375,77.63671875,0.0
1690406171.869162,-332.51953125,-42.96875,-34.1796875,-76.66015625,0.0
1690406171.873055,-434.08203125,-49.31640625,-28.3203125,-115.72265625,0.0
1690406171.8769479,98.14453125,-42.96875,-28.80859375,-1.46484375,0.0
1690406171.880841,497.55859375,-46.38671875,-31.25,102.5390625,0.0
1690406171.884734,-158.203125,-46.875,-27.34375,-35.15625,0.0
1690406171.8886268,-479.00390625,-38.0859375,-34.66796875,-126.46484375,0.0
1690406171.89252,-78.61328125,-32.2265625,-32.71484375,-42.48046875,0.0
1690406171.8964128,526.85546875,-31.25,-20.01953125,106.93359375,0.0
1690406171.900448,62.5,-44.921875,-23.92578125,23.92578125,0.0
1690406171.904341,-492.1875,-41.015625,-22.94921875,-116.69921875,0.0
1690406171.908234,-261.23046875,-38.0859375,-18.06640625,-83.984375,0.0
1690406171.912127,421.38671875,-33.69140625,-26.3671875,79.1015625,0.0
1690406171.91602,270.01953125,-37.59765625,-29.296875,65.4296875,0.0
1690406171.9199128,-422.8515625,-53.7109375,-23.92578125,-100.5859375,0.0
1690406171.923806,-405.2734375,-60.546875,-27.83203125,-111.81640625,0.0
1690406171.9276989,236.328125,-37.109375,-26.85546875,30.76171875,0.0
1690406171.931592,441.40625,-19.04296875,-22.4609375,92.28515625,0.0
1690406171.935485,-287.59765625,-26.3671875,-28.80859375,-71.2890625,0.0
1690406171.9393778,-454.1015625,-31.73828125,-33.69140625,-128.90625,0.0
1690406171.943271,84.47265625,-27.34375,-29.78515625,-7.32421875,0.0
1690406171.9472988,549.31640625,-19.53125,-44.921875,114.74609375,0.0
1690406171.951192,-86.42578125,-24.90234375,-50.78125,-13.671875,0.0
1690406171.9550848,-475.09765625,-47.36328125,-37.59765625,-116.2109375,0.0
1690406171.9589777,-117.1875,-50.29296875,-32.2265625,-58.59375,0.0
1690406171.9628708,525.390625,-28.3203125,-33.203125,90.8203125,0.0
1690406171.9667637,131.8359375,-43.9453125,-30.2734375,33.69140625,0.0
1690406171.9706569,-464.84375,-57.12890625,-26.85546875,-116.2109375,0.0
1690406171.9745498,-292.96875,-36.1328125,-26.3671875,-102.05078125,0.0
1690406171.978443,384.27734375,-22.94921875,-27.34375,62.01171875,0.0
1690406171.9823358,319.82421875,-40.0390625,-28.3203125,78.125,0.0
1690406171.986229,-400.87890625,-53.22265625,-37.59765625,-92.7734375,0.0
1690406171.9901218,-417.48046875,-39.55078125,-32.71484375,-125.9765625,0.0
1690406171.994145,182.12890625,-36.1328125,-32.71484375,3.41796875,0.0
1690406171.998038,438.4765625,-47.8515625,-32.2265625,95.703125,0.0
1690406172.001931,-277.34375,-44.921875,-22.4609375,-60.05859375,0.0
1690406172.005824,-482.91015625,-41.50390625,-22.94921875,-143.06640625,0.0
1690406172.009717,8.7890625,-41.9921875,-25.390625,-33.69140625,0.0
1690406172.0136101,532.2265625,-39.0625,-27.34375,102.5390625,0.0
1690406172.017503,-53.7109375,-50.29296875,-23.92578125,-18.5546875,0.0
1690406172.0213962,-499.51171875,-45.8984375,-28.3203125,-142.08984375,0.0
1690406172.025289,-187.98828125,-31.25,-29.78515625,-97.65625,0.0
1690406172.0291822,473.6328125,-33.69140625,-32.71484375,71.2890625,0.0
1690406172.033075,166.9921875,-37.59765625,-34.1796875,34.1796875,0.0
1690406172.0369682,-466.30859375,-38.0859375,-34.1796875,-127.44140625,0.0
1690406172.041045,-344.23828125,-36.62109375,-36.1328125,-129.8828125,0.0
1690406172.044938,320.3125,-20.99609375,-34.66796875,21.484375,0.0
1690406172.048831,361.81640625,-24.4140625,-38.0859375,69.3359375,0.0
1690406172.0527241,-350.09765625,-40.0390625,-41.015625,-84.9609375,0.0
1690406172.056617,-418.9453125,-35.64453125,-43.9453125,-121.09375,0.0
1690406172.0605102,155.2734375,-22.94921875,-40.0390625,7.8125,0.0
1690406172.0644033,508.7890625,-17.578125,-24.4140625,114.74609375,0.0
1690406172.0682962,-173.828125,-25.390625,-17.578125,-35.64453125,0.0
1690406172.0721893,-460.9375,-29.78515625,-18.06640625,-121.58203125,0.0
1690406172.0760822,-4.39453125,-26.3671875,-20.01953125,-23.92578125,0.0
1690406172.0799754,567.87109375,-14.16015625,-33.203125,112.3046875,0.0
1690406172.0838685,32.2265625,-20.01953125,-39.55078125,9.27734375,0.0
1690406172.0879314,-470.21484375,-29.78515625,-27.34375,-112.79296875,0.0
1690406172.0918245,-208.0078125,-29.296875,-24.4140625,-76.171875,0.0
1690406172.0957177,462.40234375,-21.484375,-29.78515625,70.3125,0.0
1690406172.0996106,247.0703125,-25.87890625,-20.5078125,53.7109375,0.0
1690406172.1035037,-425.29296875,-39.0625,-11.71875,-97.16796875,0.0
1690406172.1073968,-363.28125,-37.59765625,-10.25390625,-105.46875,0.0
1690406172.1112897,287.109375,-33.203125,-13.671875,45.41015625,0.0
1690406172.1151829,396.97265625,-35.64453125,-19.53125,94.7265625,0.0
1690406172.119076,-340.33203125,-46.875,-24.90234375,-68.84765625,0.0
1690406172.122969,-461.9140625,-53.22265625,-29.296875,-116.69921875,0.0
1690406172.126862,90.8203125,-38.0859375,-26.85546875,-14.16015625,0.0
1690406172.1307552,500.48828125,-37.109375,-27.34375,92.7734375,0.0
1690406172.1348124,-157.2265625,-47.8515625,-27.83203125,-36.62109375,0.0
1690406172.1387055,-498.046875,-52.24609375,-22.4609375,-145.5078125,0.0
1690406172.1425984,-102.05078125,-51.7578125,-21.484375,-65.91796875,0.0
1690406172.1464915,518.06640625,-44.921875,-31.73828125,92.28515625,0.0
1690406172.1503847,66.40625,-43.9453125,-35.64453125,8.7890625,0.0
1690406172.1542778,-491.2109375,-41.50390625,-32.2265625,-128.90625,0.0
1690406172.1581707,-285.15625,-30.2734375,-38.0859375,-109.375,0.0
1690406172.1620638,388.18359375,-16.6015625,-35.64453125,52.734375,0.0
1690406172.165957,264.6484375,-24.4140625,-29.296875,62.98828125,0.0
1690406172.1698499,-420.41015625,-31.73828125,-32.2265625,-105.95703125,0.0
1690406172.173743,-410.15625,-37.109375,-40.0390625,-123.53515625,0.0
1690406172.1776361,212.890625,-31.73828125,-41.9921875,11.71875,0.0
1690406172.1816864,421.875,-43.45703125,-36.62109375,73.73046875,0.0
1690406172.1855795,-298.33984375,-53.22265625,-37.109375,-82.03125,0.0
1690406172.1894727,-473.14453125,-35.64453125,-41.9921875,-144.04296875,0.0
1690406172.1933656,49.31640625,-31.25,-37.109375,-29.296875,0.0
1690406172.1972587,532.71484375,-37.109375,-28.80859375,98.6328125,0.0
1690406172.2011518,-95.21484375,-48.33984375,-34.66796875,-26.3671875,0.0
1690406172.205045,-482.421875,-44.43359375,-31.25,-122.0703125,0.0
1690406172.2089381,-133.30078125,-54.19921875,-31.25,-62.01171875,0.0
1690406172.212831,507.8125,-43.9453125,-34.1796875,85.9375,0.0
1690406172.2167242,135.25390625,-38.57421875,-30.76171875,24.90234375,0.0
1690406172.2206173,-469.23828125,-38.57421875,-24.90234375,-116.69921875,0.0
1690406172.2245104,-305.6640625,-24.4140625,-17.578125,-96.19140625,0.0
1690406172.2285538,361.81640625,-22.94921875,-26.3671875,56.640625,0.0
1690406172.232447,324.21875,-24.4140625,-33.69140625,72.265625,0.0
1690406172.23634,-395.5078125,-49.31640625,-26.3671875,-80.078125,0.0
1690406172.2402332,-414.55078125,-61.5234375,-24.4140625,-104.00390625,0.0
1690406172.2441263,169.921875,-38.57421875,-29.78515625,20.99609375,0.0
1690406172.2480192,434.08203125,-40.52734375,-31.73828125,105.46875,0.0
1690406172.2519124,-250.9765625,-54.6875,-30.2734375,-48.33984375,0.0
1690406172.2558055,-480.95703125,-61.03515625,-28.80859375,-124.51171875,0.0
1690406172.2596986,5.37109375,-43.45703125,-36.62109375,-24.4140625,0.0
1690406172.2635918,539.55078125,-18.06640625,-43.9453125,101.5625,0.0
1690406172.267485,-30.2734375,-32.71484375,-29.78515625,-7.32421875,0.0
1690406172.271378,-489.74609375,-45.41015625,-25.87890625,-113.76953125,0.0
1690406172.2754142,-179.6875,-37.109375,-27.83203125,-69.82421875,0.0
1690406172.2793074,482.91015625,-22.4609375,-24.4140625,85.9375,0.0
1690406172.2832005,193.359375,-29.296875,-25.390625,50.78125,0.0
1690406172.2870936,-448.2421875,-42.48046875,-36.1328125,-106.4453125,0.0
1690406172.2909868,-341.30859375,-36.1328125,-47.36328125,-105.95703125,0.0
1690406172.29488,313.4765625,-27.34375,-46.38671875,35.64453125,0.0
1690406172.2987728,351.5625,-31.25,-39.55078125,67.3828125,0.0
1690406172.302666,-375.9765625,-48.828125,-38.0859375,-101.07421875,0.0
1690406172.306559,-437.98828125,-41.50390625,-44.43359375,-143.5546875,0.0
1690406172.3104522,140.625,-24.4140625,-47.8515625,-14.6484375,0.0
1690406172.3143454,485.83984375,-22.4609375,-41.015625,84.9609375,0.0
1690406172.3182385,-197.75390625,-37.109375,-38.57421875,-59.5703125,0.0
1690406172.3222656,-484.86328125,-40.0390625,-35.15625,-156.73828125,0.0
1690406172.3261588,-52.734375,-38.0859375,-38.57421875,-72.75390625,0.0
1690406172.330052,532.2265625,-35.64453125,-44.43359375,73.73046875,0.0
1690406172.333945,28.3203125,-40.52734375,-44.921875,-20.5078125,0.0
1690406172.3378382,-487.3046875,-48.33984375,-41.9921875,-144.04296875,0.0
1690406172.3417313,-243.1640625,-45.41015625,-42.48046875,-115.234375,0.0
1690406172.3456244,421.38671875,-48.828125,-41.015625,38.57421875,0.0
1690406172.3495176,235.3515625,-45.8984375,-40.52734375,19.04296875,0.0
1690406172.3534107,-437.01171875,-36.1328125,-44.921875,-135.25390625,0.0
1690406172.3573039,-388.18359375,-38.57421875,-46.875,-140.625,0.0
1690406172.361197,263.18359375,-35.64453125,-48.33984375,5.37109375,0.0
1690406172.3650901,395.01953125,-26.85546875,-52.734375,63.96484375,0.0
1690406172.3691125,-342.7734375,-36.62109375,-46.38671875,-100.5859375,0.0
1690406172.3730056,-476.07421875,-48.33984375,-44.921875,-155.76171875,0.0
1690406172.3768988,77.63671875,-33.69140625,-50.78125,-27.83203125,0.0
1690406172.380792,509.765625,-38.0859375,-48.828125,91.30859375,0.0
1690406172.384685,-144.53125,-51.26953125,-39.0625,-32.71484375,0.0
1690406172.3885782,-501.46484375,-43.9453125,-32.2265625,-123.53515625,0.0
1690406172.3924713,-107.421875,-37.59765625,-36.62109375,-48.33984375,0.0
1690406172.3963645,531.73828125,-22.94921875,-39.55078125,88.8671875,0.0
1690406172.4002576,95.703125,-26.85546875,-30.2734375,10.25390625,0.0
1690406172.4041507,-483.88671875,-36.62109375,-23.4375,-116.2109375,0.0
1690406172.4080439,-292.96875,-45.41015625,-33.203125,-100.09765625,0.0
1690406172.411937,387.20703125,-43.9453125,-44.43359375,46.875,0.0
1690406172.4160073,277.34375,-42.48046875,-37.109375,54.19921875,0.0
1690406172.4199004,-442.3828125,-46.38671875,-26.85546875,-101.5625,0.0
1690406172.4237936,-428.22265625,-49.31640625,-32.71484375,-122.55859375,0.0
1690406172.4276867,213.8671875,-51.7578125,-34.1796875,12.6953125,0.0
1690406172.4315798,428.7109375,-41.9921875,-24.4140625,83.49609375,0.0
1690406172.4354732,-287.59765625,-40.52734375,-25.390625,-71.77734375,0.0
1690406172.4393663,-462.890625,-36.62109375,-23.92578125,-133.7890625,0.0
1690406172.4432595,50.29296875,-25.87890625,-23.4375,-24.90234375,0.0
1690406172.4471526,539.0625,-18.06640625,-32.2265625,106.4453125,0.0
1690406172.4510458,-75.68359375,-28.3203125,-32.71484375,-18.06640625,0.0
1690406172.454939,-485.83984375,-31.25,-27.83203125,-135.7421875,0.0
1690406172.458832,-137.20703125,-30.2734375,-29.78515625,-92.28515625,0.0
1690406172.4628994,516.11328125,-30.76171875,-32.71484375,71.77734375,0.0
1690406172.4667928,146.97265625,-43.9453125,-32.71484375,28.3203125,0.0
1690406172.470686,-469.7265625,-57.12890625,-37.109375,-132.8125,0.0
1690406172.474579,-317.87109375,-39.55078125,-39.55078125,-122.0703125,0.0
1690406172.4784722,351.5625,-21.484375,-38.57421875,42.48046875,0.0
1690406172.4823654,321.77734375,-25.390625,-44.921875,70.3125,0.0
1690406172.4862587,-395.99609375,-32.71484375,-49.31640625,-101.07421875,0.0
1690406172.490152,-430.6640625,-32.2265625,-49.31640625,-135.25390625,0.0
1690406172.494045,167.96875,-36.1328125,-44.43359375,-1.46484375,0.0
1690406172.4979382,465.33203125,-36.1328125,-38.57421875,92.7734375,0.0
1690406172.5018313,-223.14453125,-41.9921875,-40.52734375,-59.5703125,0.0
1690406172.5057247,-471.6796875,-48.33984375,-46.38671875,-132.32421875,0.0
1690406172.5097792,-4.39453125,-39.55078125,-46.875,-35.64453125,0.0
1690406172.5136724,548.828125,-40.0390625,-54.6875,103.515625,0.0
1690406172.5175655,-20.99609375,-52.734375,-51.26953125,2.9296875,0.0
1690406172.5214586,-476.5625,-52.24609375,-44.921875,-115.72265625,0.0
1690406172.525352,-166.9921875,-46.875,-50.29296875,-62.98828125,0.0
1690406172.5292451,488.28125,-27.34375,-46.875,86.42578125,0.0
1690406172.5331383,205.078125,-28.80859375,-42.96875,47.36328125,0.0
1690406172.5370314,-456.0546875,-42.48046875,-41.015625,-107.421875,0.0
1690406172.5409248,-345.703125,-45.8984375,-42.48046875,-108.3984375,0.0
1690406172.544818,317.87109375,-31.25,-49.31640625,34.1796875,0.0
1690406172.548711,376.953125,-20.5078125,-49.8046875,82.51953125,0.0
1690406172.5526042,-349.12109375,-39.0625,-48.828125,-73.73046875,0.0
1690406172.5566516,-435.05859375,-53.7109375,-54.6875,-127.44140625,0.0
1690406172.5605447,144.04296875,-36.62109375,-47.36328125,-3.41796875,0.0
1690406172.564438,522.4609375,-20.99609375,-39.55078125,109.86328125,0.0
1690406172.5683312,-170.41015625,-30.2734375,-37.59765625,-29.78515625,0.0
1690406172.5722244,-472.65625,-41.9921875,-32.2265625,-125.0,0.0
1690406172.5761178,-30.2734375,-51.26953125,-37.59765625,-44.921875,0.0
1690406172.580011,564.453125,-41.015625,-41.9921875,97.16796875,0.0
1690406172.583904,58.10546875,-53.7109375,-33.203125,13.671875,0.0
1690406172.5877974,-470.703125,-58.59375,-43.45703125,-114.2578125,0.0
1690406172.5916905,-227.05078125,-35.64453125,-47.36328125,-90.33203125,0.0
1690406172.5955837,455.078125,-44.921875,-41.50390625,73.2421875,0.0
1690406172.5994768,279.78515625,-49.8046875,-39.0625,59.5703125,0.0
1690406172.6035168,-416.50390625,-41.9921875,-35.15625,-107.91015625,0.0
1690406172.6074102,-368.65234375,-34.1796875,-29.78515625,-129.8828125,0.0
1690406172.6113033,283.203125,-21.97265625,-4.8828125,16.6015625,0.0
1690406172.6151967,427.24609375,-26.3671875,6.8359375,84.47265625,0.0
1690406172.6190898,-308.59375,-47.36328125,-6.34765625,-84.9609375,0.0
1690406172.622983,-459.9609375,-52.24609375,-10.25390625,-138.18359375,0.0
1690406172.6268764,80.56640625,-37.109375,-11.71875,-15.13671875,0.0
1690406172.6307695,534.66796875,-44.43359375,-20.99609375,109.375,0.0
1690406172.6346629,-116.69921875,-52.734375,-16.11328125,-28.3203125,0.0
1690406172.638556,-490.72265625,-43.9453125,-9.765625,-134.765625,0.0
1690406172.6424491,-106.4453125,-38.0859375,-17.578125,-64.94140625,0.0
1690406172.6463425,529.296875,-26.3671875,-24.4140625,88.37890625,0.0
1690406172.6503747,98.6328125,-33.203125,-27.34375,17.08984375,0.0
1690406172.6542678,-482.91015625,-43.9453125,-28.80859375,-137.20703125,0.0
1690406172.6581612,-297.8515625,-46.875,-25.390625,-120.1171875,0.0
1690406172.6620543,378.41796875,-37.109375,-23.92578125,28.80859375,0.0
1690406172.6659477,287.59765625,-39.55078125,-21.97265625,42.96875,0.0
1690406172.6698408,-420.41015625,-66.40625,-17.578125,-105.95703125,0.0
1690406172.6737342,-424.31640625,-71.77734375,-34.1796875,-128.90625,0.0
1690406172.6776273,198.2421875,-50.29296875,-47.36328125,6.34765625,0.0
1690406172.6815205,448.73046875,-26.3671875,-41.50390625,81.0546875,0.0
1690406172.6854138,-281.25,-30.2734375,-41.50390625,-73.2421875,0.0
1690406172.689307,-479.4921875,-44.43359375,-42.48046875,-136.71875,0.0
1690406172.6932003,19.53125,-37.59765625,-45.41015625,-31.73828125,0.0
1690406172.6972806,520.99609375,-28.3203125,-37.59765625,92.28515625,0.0
1690406172.7011738,-63.96484375,-41.9921875,-29.296875,-19.04296875,0.0
1690406172.7050672,-496.58203125,-57.6171875,-29.296875,-136.23046875,0.0
1690406172.7089603,-132.8125,-50.29296875,-31.73828125,-73.2421875,0.0
1690406172.7128537,446.2890625,-37.109375,-38.0859375,69.3359375,0.0
1690406172.7167468,58.10546875,-57.12890625,-42.48046875,3.90625,0.0
1690406172.7206402,-461.9140625,-61.03515625,-37.109375,-116.69921875,0.0
1690406172.7245333,-328.61328125,-41.015625,-38.0859375,-118.65234375,0.0
1690406172.7284267,330.078125,-40.0390625,-41.50390625,14.16015625,0.0
1690406172.7323198,327.1484375,-42.48046875,-38.57421875,54.19921875,0.0
1690406172.7362132,-382.32421875,-53.22265625,-41.9921875,-97.65625,0.0
1690406172.7401063,-435.05859375,-52.734375,-41.50390625,-140.625,0.0
1690406172.7441278,157.2265625,-49.31640625,-38.0859375,-6.34765625,0.0
1690406172.7480211,482.91015625,-58.59375,-35.64453125,97.16796875,0.0
1690406172.7519143,-224.12109375,-59.08203125,-46.875,-56.15234375,0.0
1690406172.7558076,-484.375,-57.12890625,-48.33984375,-134.27734375,0.0
1690406172.759701,-17.578125,-59.5703125,-35.15625,-42.48046875,0.0
1690406172.7635942,537.109375,-42.96875,-36.1328125,103.515625,0.0
1690406172.7674875,-7.32421875,-33.203125,-35.64453125,6.8359375,0.0
1690406172.7713807,-482.421875,-28.3203125,-34.1796875,-124.0234375,0.0
1690406172.775274,-202.1484375,-24.90234375,-41.50390625,-85.9375,0.0
1690406172.7791672,459.47265625,-26.85546875,-41.015625,72.75390625,0.0
1690406172.7830606,205.56640625,-36.1328125,-36.62109375,42.96875,0.0
1690406172.786954,-437.01171875,-41.9921875,-26.85546875,-120.1171875,0.0
1690406172.79102,-351.07421875,-36.62109375,-9.27734375,-120.1171875,0.0
1690406172.7949133,299.31640625,-32.71484375,-15.13671875,33.203125,0.0
1690406172.7988064,387.6953125,-28.80859375,-22.4609375,77.1484375,0.0
1690406172.8026998,-338.37890625,-43.45703125,-18.06640625,-85.44921875,0.0
1690406172.8065932,-447.265625,-56.640625,-23.92578125,-133.30078125,0.0
1690406172.8104863,113.76953125,-36.62109375,-21.484375,-7.32421875,0.0
1690406172.8143797,504.8828125,-20.5078125,-28.80859375,105.46875,0.0
1690406172.818273,-168.9453125,-28.3203125,-30.2734375,-32.71484375,0.0
1690406172.8221662,-479.4921875,-40.0390625,-21.97265625,-135.7421875,0.0
1690406172.8260596,-52.734375,-41.015625,-20.5078125,-59.08203125,0.0
1690406172.829953,552.24609375,-22.94921875,-20.99609375,93.75,0.0
1690406172.833846,66.89453125,-26.3671875,-23.92578125,13.18359375,0.0
1690406172.8379061,-473.6328125,-39.55078125,-31.73828125,-128.90625,0.0
1690406172.8417993,-239.74609375,-38.57421875,-38.0859375,-98.14453125,0.0
1690406172.8456926,428.22265625,-33.203125,-40.0390625,67.3828125,0.0
1690406172.849586,258.7890625,-55.6640625,-37.109375,58.10546875,0.0
1690406172.8534791,-430.17578125,-63.4765625,-34.66796875,-106.4453125,0.0
1690406172.8573725,-389.6484375,-39.0625,-29.296875,-125.0,0.0
1690406172.861266,260.7421875,-24.90234375,-33.69140625,13.671875,0.0
1690406172.8651593,426.7578125,-25.87890625,-39.55078125,87.890625,0.0
1690406172.8690524,-310.05859375,-34.66796875,-30.2734375,-62.5,0.0
1690406172.8729458,-459.9609375,-38.0859375,-32.71484375,-122.0703125,0.0
1690406172.8768392,79.58984375,-20.99609375,-40.52734375,-27.34375,0.0
1690406172.8807325,532.71484375,-17.08984375,-34.66796875,91.30859375,0.0
1690406172.8847847,-104.4921875,-30.2734375,-30.2734375,-19.53125,0.0
1690406172.888678,-479.98046875,-47.8515625,-29.78515625,-120.60546875,0.0
1690406172.8925714,-110.83984375,-48.33984375,-42.48046875,-62.01171875,0.0
1690406172.8964648,523.4375,-20.01953125,-54.19921875,89.84375,0.0
1690406172.900358,122.0703125,-27.83203125,-44.921875,32.71484375,0.0
1690406172.9042513,-463.37890625,-44.43359375,-40.52734375,-112.79296875,0.0
1690406172.9081447,-296.875,-36.1328125,-41.50390625,-104.98046875,0.0
1690406172.912038,375.48828125,-23.92578125,-36.62109375,50.78125,0.0
1690406172.9159315,303.22265625,-31.25,-27.83203125,66.40625,0.0
1690406172.9198246,-400.87890625,-43.45703125,-30.2734375,-95.21484375,0.0
1690406172.923718,-416.9921875,-41.50390625,-33.203125,-121.09375,0.0
1690406172.9276114,191.40625,-44.921875,-36.62109375,11.23046875,0.0
1690406172.9316578,451.171875,-49.31640625,-33.69140625,100.09765625,0.0
1690406172.9355512,-254.39453125,-51.26953125,-28.80859375,-52.24609375,0.0
1690406172.9394445,-465.33203125,-52.734375,-31.73828125,-131.8359375,0.0
1690406172.9433377,26.85546875,-43.45703125,-40.0390625,-37.59765625,0.0
1690406172.947231,554.19921875,-23.92578125,-45.41015625,104.98046875,0.0
1690406172.9511244,-37.59765625,-29.296875,-50.29296875,-4.8828125,0.0
1690406172.9550178,-479.00390625,-35.64453125,-49.8046875,-123.53515625,0.0
1690406172.9589112,-162.59765625,-37.59765625,-38.0859375,-65.4296875,0.0
1690406172.9628046,493.65234375,-35.15625,-37.109375,95.21484375,0.0
1690406172.9666977,182.12890625,-32.71484375,-37.109375,43.45703125,0.0
1690406172.970591,-448.73046875,-44.43359375,-35.64453125,-104.00390625,0.0
1690406172.9744844,-322.75390625,-47.36328125,-35.15625,-93.26171875,0.0
1690406172.9785275,339.84375,-46.875,-43.45703125,50.29296875,0.0
1690406172.9824207,348.14453125,-52.24609375,-43.45703125,74.70703125,0.0
1690406172.986314,-376.46484375,-52.734375,-41.50390625,-104.98046875,0.0
1690406172.9902074,-432.12890625,-39.55078125,-41.50390625,-149.4140625,0.0
1690406172.9941008,143.06640625,-29.78515625,-37.59765625,-14.6484375,0.0
1690406172.9979942,473.14453125,-28.80859375,-32.71484375,91.30859375,0.0
1690406173.0018876,-200.1953125,-38.57421875,-25.87890625,-47.36328125,0.0
1690406173.005781,-475.5859375,-51.26953125,-29.78515625,-137.6953125,0.0
1690406173.0096743,-21.97265625,-41.50390625,-42.48046875,-55.17578125,0.0
1690406173.0135677,542.48046875,-20.99609375,-44.43359375,85.9375,0.0
1690406173.017461,15.625,-32.2265625,-35.15625,-7.8125,0.0
1690406173.0213544,-486.81640625,-41.9921875,-36.1328125,-133.30078125,0.0
1690406173.0253873,-227.05078125,-40.52734375,-42.96875,-92.7734375,0.0
1690406173.0292807,456.0546875,-38.57421875,-52.734375,65.4296875,0.0
1690406173.033174,217.28515625,-30.76171875,-44.921875,28.80859375,0.0
1690406173.0370672,-463.37890625,-34.66796875,-33.69140625,-127.9296875,0.0
1690406173.0409606,-375.0,-37.59765625,-41.50390625,-123.53515625,0.0
1690406173.044854,272.94921875,-36.1328125,-48.33984375,21.484375,0.0
1690406173.0487473,371.09375,-43.9453125,-43.9453125,81.54296875,0.0
1690406173.0526407,-346.6796875,-43.9453125,-34.1796875,-75.68359375,0.0
1690406173.056534,-460.9375,-36.1328125,-38.0859375,-139.16015625,0.0
1690406173.0604274,104.4921875,-33.69140625,-35.64453125,-18.5546875,0.0
1690406173.0643208,516.11328125,-28.80859375,-27.34375,96.19140625,0.0
1690406173.0682142,-161.62109375,-46.875,-30.2734375,-38.0859375,0.0
1690406173.072244,-484.86328125,-48.828125,-27.83203125,-122.0703125,0.0
1690406173.0761373,-76.171875,-28.80859375,-25.87890625,-46.38671875,0.0
1690406173.0800307,528.80859375,-20.99609375,-31.73828125,99.12109375,0.0
1690406173.083924,74.70703125,-24.90234375,-32.2265625,23.92578125,0.0
1690406173.0878174,-479.98046875,-34.66796875,-35.64453125,-119.140625,0.0
1690406173.0917108,-263.671875,-43.45703125,-38.57421875,-101.07421875,0.0
1690406173.0956042,419.43359375,-34.1796875,-40.52734375,59.5703125,0.0
1690406173.0994976,276.85546875,-30.2734375,-39.55078125,57.12890625,0.0
1690406173.103391,-417.96875,-41.015625,-39.0625,-108.3984375,0.0
1690406173.1072843,-392.08984375,-37.59765625,-36.1328125,-116.2109375,0.0
1690406173.1111777,241.69921875,-32.71484375,-41.015625,22.4609375,0.0
1690406173.115071,431.640625,-45.8984375,-43.45703125,82.51953125,0.0
1690406173.1190913,-292.96875,-52.24609375,-32.71484375,-70.80078125,0.0
1690406173.122985,-461.42578125,-40.52734375,-34.1796875,-128.41796875,0.0
1690406173.1268783,71.2890625,-31.73828125,-34.1796875,-8.30078125,0.0
1690406173.1307716,537.109375,-23.4375,-41.015625,119.62890625,0.0
1690406173.134665,-89.35546875,-28.3203125,-39.0625,-21.97265625,0.0
1690406173.1385584,-477.05078125,-41.50390625,-38.0859375,-143.5546875,0.0
1690406173.1424518,-130.859375,-42.96875,-42.48046875,-77.63671875,0.0
1690406173.1463451,512.20703125,-24.4140625,-45.41015625,80.56640625,0.0
1690406173.1502385,132.8125,-27.83203125,-44.921875,9.765625,0.0
1690406173.154132,-464.84375,-56.15234375,-40.0390625,-131.34765625,0.0
1690406173.1580253,-300.78125,-44.921875,-40.52734375,-105.95703125,0.0
1690406173.1619186,370.60546875,-11.71875,-47.8515625,50.78125,0.0
1690406173.165985,311.5234375,-10.7421875,-43.45703125,57.12890625,0.0
1690406173.1698785,-403.80859375,-25.390625,-41.9921875,-114.2578125,0.0
1690406173.1737719,-416.50390625,-39.0625,-54.6875,-141.6015625,0.0
1690406173.1776655,193.359375,-32.71484375,-55.17578125,-8.7890625,0.0
1690406173.1815588,458.49609375,-26.3671875,-48.828125,91.796875,0.0
1690406173.1854522,-252.9296875,-41.9921875,-49.8046875,-69.3359375,0.0
1690406173.1893456,-479.4921875,-40.0390625,-53.7109375,-144.53125,0.0
1690406173.193239,10.7421875,-27.83203125,-48.828125,-30.2734375,0.0
1690406173.1971323,540.0390625,-32.2265625,-46.875,104.00390625,0.0
1690406173.201026,-44.921875,-54.19921875,-46.38671875,-10.25390625,0.0
1690406173.2049193,-487.79296875,-57.12890625,-41.50390625,-132.8125,0.0
1690406173.2088127,-176.26953125,-41.015625,-32.71484375,-76.171875,0.0
1690406173.2128701,475.09765625,-33.69140625,-32.71484375,83.49609375,0.0
1690406173.2167637,168.45703125,-41.50390625,-36.62109375,37.109375,0.0
1690406173.220657,-468.26171875,-51.26953125,-47.36328125,-114.74609375,0.0
1690406173.2245505,-350.5859375,-46.38671875,-55.6640625,-113.76953125,0.0
1690406173.2284439,313.4765625,-40.0390625,-53.22265625,40.52734375,0.0
1690406173.2323372,329.58984375,-48.33984375,-47.36328125,72.75390625,0.0
1690406173.2362309,-387.20703125,-51.26953125,-41.9921875,-101.5625,0.0
1690406173.2401242,-425.78125,-39.55078125,-44.43359375,-128.90625,0.0
1690406173.2440176,145.5078125,-49.31640625,-42.48046875,-5.859375,0.0
1690406173.247911,480.95703125,-48.828125,-46.38671875,83.49609375,0.0
1690406173.2518046,-204.1015625,-36.1328125,-50.78125,-49.31640625,0.0
1690406173.255698,-477.5390625,-45.41015625,-43.9453125,-132.32421875,0.0
1690406173.2597494,-46.875,-34.66796875,-46.38671875,-50.78125,0.0
1690406173.2636428,535.15625,-26.85546875,-56.640625,98.14453125,0.0
1690406173.2675364,29.296875,-38.57421875,-52.24609375,-2.44140625,0.0
1690406173.2714298,-486.328125,-41.9921875,-44.43359375,-132.8125,0.0
1690406173.2753232,-222.16796875,-37.109375,-50.29296875,-93.75,0.0
1690406173.2792165,457.03125,-25.390625,-51.7578125,63.96484375,0.0
1690406173.2831101,243.65234375,-23.4375,-44.43359375,60.546875,0.0
1690406173.2870035,-427.24609375,-44.921875,-43.9453125,-91.796875,0.0
1690406173.290897,-363.76953125,-59.5703125,-43.45703125,-107.421875,0.0
1690406173.2947905,271.97265625,-40.0390625,-47.36328125,28.80859375,0.0
1690406173.298684,387.20703125,-24.90234375,-42.48046875,82.51953125,0.0
1690406173.3025773,-333.49609375,-29.78515625,-33.203125,-67.3828125,0.0
1690406173.3066216,-460.44921875,-44.43359375,-38.57421875,-126.46484375,0.0
1690406173.310515,86.9140625,-37.59765625,-43.45703125,-23.4375,0.0
1690406173.3144085,525.87890625,-31.25,-45.41015625,110.83984375,0.0
1690406173.318302,-124.0234375,-51.7578125,-42.96875,-16.6015625,0.0
1690406173.3221955,-479.98046875,-48.33984375,-40.52734375,-130.859375,0.0
1690406173.326089,-70.3125,-41.9921875,-47.36328125,-61.03515625,0.0
1690406173.3299823,555.6640625,-51.26953125,-53.7109375,99.609375,0.0
1690406173.333876,79.1015625,-66.40625,-49.31640625,14.16015625,0.0
1690406173.3377693,-483.88671875,-55.6640625,-44.921875,-124.0234375,0.0
1690406173.3416626,-265.13671875,-35.15625,-55.6640625,-104.98046875,0.0
1690406173.3455563,407.71484375,-25.390625,-60.05859375,48.33984375,0.0
1690406173.3494496,277.34375,-24.4140625,-48.828125,57.6171875,0.0
1690406173.3534892,-421.38671875,-40.52734375,-48.33984375,-117.67578125,0.0
1690406173.3573828,-396.484375,-44.43359375,-46.875,-127.9296875,0.0
1690406173.3612761,228.02734375,-39.55078125,-39.0625,10.25390625,0.0
1690406173.3651698,432.6171875,-38.0859375,-41.015625,74.70703125,0.0
1690406173.3690631,-285.15625,-34.1796875,-44.43359375,-72.265625,0.0
1690406173.3729565,-463.8671875,-51.7578125,-36.1328125,-130.37109375,0.0
1690406173.3768501,52.734375,-60.05859375,-31.25,-33.69140625,0.0
1690406173.3807435,544.43359375,-39.0625,-31.25,95.703125,0.0
1690406173.384637,-73.2421875,-25.87890625,-32.2265625,-20.01953125,0.0
1690406173.3885305,-483.3984375,-28.80859375,-32.2265625,-135.7421875,0.0
1690406173.392424,-138.671875,-42.96875,-42.96875,-73.2421875,0.0
1690406173.3963175,500.9765625,-33.203125,-49.8046875,71.2890625,0.0
1690406173.4003477,134.765625,-31.73828125,-46.875,12.6953125,0.0
1690406173.4042413,-471.19140625,-38.0859375,-45.8984375,-124.0234375,0.0
1690406173.4081347,-314.453125,-35.64453125,-39.55078125,-114.74609375,0.0
1690406173.4120283,348.14453125,-38.57421875,-48.828125,36.62109375,0.0
1690406173.4159217,317.87109375,-37.59765625,-53.7109375,60.05859375,0.0
1690406173.419815,-391.11328125,-31.73828125,-47.8515625,-101.5625,0.0
1690406173.4237087,-431.640625,-52.734375,-50.78125,-132.8125,0.0
1690406173.427602,170.8984375,-53.22265625,-53.7109375,6.34765625,0.0
1690406173.4314957,468.75,-24.90234375,-45.8984375,92.7734375,0.0
1690406173.435389,-249.0234375,-36.1328125,-39.55078125,-62.01171875,0.0
1690406173.4392827,-485.3515625,-47.36328125,-43.9453125,-133.30078125,0.0
1690406173.443176,-4.8828125,-43.9453125,-46.38671875,-36.1328125,0.0
1690406173.4472003,550.78125,-39.0625,-45.41015625,99.609375,0.0
1690406173.451094,-6.8359375,-39.55078125,-41.015625,-3.41796875,0.0
1690406173.4549873,-479.4921875,-41.9921875,-41.50390625,-121.58203125,0.0
1690406173.458881,-178.22265625,-52.734375,-43.45703125,-73.73046875,0.0
1690406173.4627743,484.375,-50.78125,-44.43359375,91.30859375,0.0
1690406173.466668,200.1953125,-41.50390625,-46.38671875,53.7109375,0.0
1690406173.4705613,-445.80078125,-50.29296875,-44.921875,-103.515625,0.0
1690406173.4744549,-342.7734375,-47.36328125,-45.41015625,-103.515625,0.0
1690406173.4783483,312.98828125,-37.109375,-48.828125,38.0859375,0.0
1690406173.4822419,371.58203125,-32.71484375,-43.9453125,74.70703125,0.0
1690406173.4861352,-346.6796875,-43.45703125,-37.59765625,-83.49609375,0.0
1690406173.4900289,-431.15234375,-43.45703125,-43.9453125,-142.578125,0.0
1690406173.4940476,134.27734375,-35.15625,-47.8515625,-21.484375,0.0
1690406173.4979413,501.953125,-40.0390625,-37.109375,104.4921875,0.0
1690406173.5018346,-190.4296875,-62.5,-42.96875,-42.96875,0.0
1690406173.5057282,-491.69921875,-66.40625,-45.8984375,-139.6484375,0.0
1690406173.5096219,-57.12890625,-41.50390625,-37.109375,-54.6875,0.0
1690406173.5135152,530.76171875,-36.62109375,-33.69140625,102.5390625,0.0
1690406173.5174088,41.015625,-53.7109375,-33.69140625,16.11328125,0.0
1690406173.5213022,-480.95703125,-49.8046875,-45.8984375,-124.0234375,0.0
1690406173.5251958,-247.55859375,-40.0390625,-43.45703125,-97.16796875,0.0
1690406173.5290895,430.17578125,-36.62109375,-38.0859375,56.15234375,0.0
1690406173.5329828,245.60546875,-40.0390625,-41.015625,41.50390625,0.0
1690406173.5368764,-436.5234375,-49.8046875,-38.57421875,-113.28125,0.0
1690406173.5409398,-392.08984375,-57.12890625,-41.9921875,-124.51171875,0.0
1690406173.5448332,240.234375,-45.41015625,-42.96875,10.25390625,0.0
1690406173.5487268,402.34375,-35.15625,-44.921875,76.171875,0.0
1690406173.5526204,-330.078125,-46.38671875,-42.96875,-77.63671875,0.0
1690406173.5565138,-413.57421875,-37.59765625,-40.52734375,-128.90625,0.0
1690406173.5604074,150.390625,-35.64453125,-43.45703125,-4.39453125,0.0
1690406173.564301,522.4609375,-46.38671875,-45.41015625,96.19140625,0.0
1690406173.5681944,-112.79296875,-47.8515625,-49.31640625,-30.2734375,0.0
1690406173.572088,-475.09765625,-46.38671875,-43.45703125,-122.55859375,0.0
1690406173.5759816,-99.12109375,-39.0625,-44.43359375,-54.19921875,0.0
1690406173.579875,531.25,-29.296875,-49.31640625,96.19140625,0.0
1690406173.5837686,109.375,-41.9921875,-32.2265625,21.97265625,0.0
1690406173.5878274,-482.91015625,-47.36328125,-21.97265625,-121.09375,0.0
1690406173.591721,-290.52734375,-52.734375,-25.87890625,-95.21484375,0.0
1690406173.5956147,395.5078125,-47.36328125,-36.1328125,58.10546875,0.0
1690406173.599508,299.8046875,-32.71484375,-40.52734375,62.5,0.0
1690406173.6034017,-400.390625,-42.48046875,-41.9921875,-94.7265625,0.0
1690406173.6072953,-405.76171875,-44.921875,-41.50390625,-124.51171875,0.0
1690406173.611189,205.078125,-28.3203125,-36.1328125,14.16015625,0.0
1690406173.6150823,454.1015625,-25.87890625,-34.1796875,104.4921875,0.0
1690406173.6189759,-276.3671875,-42.48046875,-41.015625,-58.10546875,0.0
1690406173.6228695,-486.328125,-47.36328125,-43.9453125,-132.32421875,0.0
1690406173.626763,38.0859375,-32.2265625,-41.015625,-32.71484375,0.0
1690406173.6306565,544.43359375,-41.015625,-36.62109375,104.98046875,0.0
1690406173.6347086,-64.453125,-72.75390625,-32.71484375,-10.25390625,0.0
1690406173.638602,-494.62890625,-60.05859375,-37.59765625,-129.8828125,0.0
1690406173.6424956,-164.55078125,-38.57421875,-43.45703125,-75.68359375,0.0
1690406173.6463892,489.74609375,-33.203125,-43.9453125,79.1015625,0.0
1690406173.6502829,155.2734375,-33.203125,-32.2265625,32.71484375,0.0
1690406173.6541765,-464.84375,-42.96875,-29.296875,-116.69921875,0.0
1690406173.6580698,-324.70703125,-41.50390625,-33.69140625,-107.91015625,0.0
1690406173.6619635,341.30859375,-33.69140625,-35.64453125,51.7578125,0.0
1690406173.665857,338.8671875,-44.921875,-37.109375,86.9140625,0.0
1690406173.6697507,-373.046875,-41.015625,-36.62109375,-77.63671875,0.0
1690406173.6736443,-419.921875,-28.3203125,-33.203125,-124.51171875,0.0
1690406173.6775377,163.57421875,-32.2265625,-37.109375,0.48828125,0.0
1690406173.6815841,485.83984375,-40.0390625,-38.57421875,105.95703125,0.0
1690406173.6854775,-207.03125,-33.203125,-32.2265625,-30.2734375,0.0
1690406173.689371,-474.12109375,-29.78515625,-26.85546875,-114.74609375,0.0
1690406173.6932647,-8.7890625,-34.66796875,-27.83203125,-31.25,0.0
1690406173.6971583,560.05859375,-36.62109375,-35.64453125,105.95703125,0.0
1690406173.701052,14.6484375,-48.828125,-39.0625,12.20703125,0.0
1690406173.7049456,-462.890625,-43.9453125,-37.109375,-111.328125,0.0
1690406173.708839,-186.03515625,-38.57421875,-33.203125,-71.77734375,0.0
1690406173.7127326,469.23828125,-27.34375,-35.64453125,83.0078125,0.0
1690406173.7166262,218.75,-12.6953125,-36.62109375,49.31640625,0.0
1690406173.7205198,-440.91796875,-30.76171875,-36.62109375,-104.98046875,0.0
1690406173.7244134,-360.83984375,-49.8046875,-41.9921875,-118.1640625,0.0
1690406173.7284517,286.1328125,-39.55078125,-50.29296875,25.87890625,0.0
1690406173.7323453,377.44140625,-20.5078125,-39.55078125,83.0078125,0.0
1690406173.736239,-340.8203125,-28.80859375,-33.69140625,-82.51953125,0.0
1690406173.7401326,-438.96484375,-38.57421875,-36.62109375,-129.8828125,0.0
1690406173.7440262,110.83984375,-33.69140625,-36.62109375,-7.32421875,0.0
1690406173.7479198,498.53515625,-33.203125,-37.59765625,102.5390625,0.0
1690406173.7518134,-168.45703125,-47.36328125,-35.64453125,-30.2734375,0.0
1690406173.755707,-499.51171875,-47.8515625,-36.62109375,-134.765625,0.0
1690406173.7596006,-82.51953125,-29.78515625,-33.69140625,-69.3359375,0.0
1690406173.763494,535.15625,-23.4375,-31.25,89.84375,0.0
1690406173.7673876,62.5,-46.875,-30.76171875,0.0,0.0
1690406173.7712812,-484.375,-54.6875,-32.71484375,-137.6953125,0.0
1690406173.7753131,-256.8359375,-33.69140625,-34.1796875,-94.23828125,0.0
1690406173.7792068,408.203125,-23.4375,-37.59765625,62.01171875,0.0
1690406173.7831004,242.1875,-35.64453125,-41.015625,53.22265625,0.0
1690406173.786994,-424.8046875,-39.55078125,-36.62109375,-110.3515625,0.0
1690406173.7908876,-393.06640625,-35.15625,-34.1796875,-128.90625,0.0
1690406173.7947812,236.81640625,-24.90234375,-39.55078125,23.92578125,0.0
1690406173.7986748,420.41015625,-24.4140625,-42.96875,101.07421875,0.0
1690406173.8025684,-307.12890625,-41.015625,-40.52734375,-57.6171875,0.0
1690406173.806462,-464.84375,-36.1328125,-40.0390625,-125.0,0.0
1690406173.8103557,69.82421875,-29.296875,-46.875,-19.04296875,0.0
1690406173.8142493,532.2265625,-35.15625,-45.8984375,106.4453125,0.0
1690406173.818143,-102.5390625,-44.921875,-36.62109375,-19.04296875,0.0
1690406173.8221672,-484.86328125,-46.38671875,-43.9453125,-130.37109375,0.0
1690406173.8260608,-112.3046875,-43.45703125,-41.9921875,-68.359375,0.0
1690406173.8299544,515.625,-30.76171875,-36.1328125,84.9609375,0.0
1690406173.833848,114.2578125,-27.83203125,-42.48046875,9.27734375,0.0
1690406173.8377416,-467.7734375,-40.0390625,-37.59765625,-139.16015625,0.0
1690406173.8416352,-294.921875,-48.828125,-28.3203125,-117.1875,0.0
1690406173.8455288,363.28125,-40.52734375,-30.76171875,48.33984375,0.0
1690406173.8494225,298.828125,-28.3203125,-36.1328125,57.12890625,0.0
1690406173.853316,-394.53125,-26.85546875,-41.9921875,-104.4921875,0.0
1690406173.8572097,-402.83203125,-33.203125,-31.25,-123.046875,0.0
1690406173.8611033,193.84765625,-34.66796875,-37.109375,5.859375,0.0
1690406173.864997,446.2890625,-29.78515625,-51.26953125,88.8671875,0.0
1690406173.869015,-257.32421875,-45.8984375,-39.0625,-65.4296875,0.0
1690406173.8729086,-473.14453125,-64.453125,-35.15625,-134.765625,0.0
1690406173.8768022,17.578125,-43.45703125,-37.109375,-43.45703125,0.0
1690406173.8806958,542.96875,-13.671875,-37.59765625,95.21484375,0.0
1690406173.8845894,-41.015625,-29.296875,-38.57421875,-12.6953125,0.0
1690406173.888483,-489.74609375,-43.9453125,-36.62109375,-136.71875,0.0
1690406173.8923767,-174.8046875,-38.57421875,-28.3203125,-74.70703125,0.0
1690406173.8962703,474.12109375,-24.90234375,-37.109375,78.125,0.0
1690406173.900164,155.76171875,-36.62109375,-48.33984375,25.390625,0.0
1690406173.9040575,-474.609375,-54.19921875,-44.921875,-121.58203125,0.0
1690406173.9079514,-355.95703125,-38.0859375,-39.55078125,-123.53515625,0.0
1690406173.911845,316.89453125,-29.296875,-43.45703125,23.92578125,0.0
1690406173.915909,344.7265625,-32.2265625,-47.36328125,70.3125,0.0
1690406173.9198027,-379.39453125,-40.0390625,-41.50390625,-82.03125,0.0
1690406173.9236963,-441.40625,-38.57421875,-37.59765625,-133.7890625,0.0
1690406173.92759,135.25390625,-35.15625,-33.203125,-16.11328125,0.0
1690406173.9314837,472.65625,-37.59765625,-29.78515625,93.26171875,0.0
1690406173.9353774,-212.40234375,-52.734375,-33.69140625,-50.78125,0.0
1690406173.939271,-482.421875,-55.6640625,-30.76171875,-131.8359375,0.0
1690406173.9431646,-33.69140625,-39.55078125,-30.2734375,-47.36328125,0.0
1690406173.9470582,536.1328125,-49.8046875,-41.50390625,89.35546875,0.0
1690406173.9509518,9.27734375,-72.265625,-40.52734375,0.48828125,0.0
1690406173.9548454,-485.83984375,-54.19921875,-30.2734375,-127.9296875,0.0
1690406173.9587393,-216.30859375,-41.50390625,-26.85546875,-87.40234375,0.0
1690406173.962795,438.96484375,-31.73828125,-35.64453125,69.3359375,0.0
1690406173.9666886,207.03125,-35.15625,-36.1328125,40.0390625,0.0
1690406173.9705822,-446.2890625,-40.0390625,-28.80859375,-117.1875,0.0
1690406173.974476,-368.65234375,-32.71484375,-19.53125,-109.86328125,0.0
1690406173.9783697,270.99609375,-27.83203125,-25.87890625,41.9921875,0.0
1690406173.9822633,385.25390625,-34.1796875,-39.55078125,84.47265625,0.0
1690406173.986157,-338.37890625,-45.41015625,-35.64453125,-73.2421875,0.0
1690406173.9900506,-457.51953125,-48.33984375,-33.203125,-126.953125,0.0
1690406173.9939444,82.03125,-48.828125,-27.34375,-3.90625,0.0
1690406173.997838,499.51171875,-34.66796875,-27.34375,113.76953125,0.0
1690406174.0017316,-151.85546875,-26.85546875,-34.1796875,-30.2734375,0.0
1690406174.0056252,-493.65234375,-35.15625,-35.64453125,-124.51171875,0.0
1690406174.009675,-89.84375,-37.109375,-35.64453125,-49.31640625,0.0
1690406174.0135686,527.83203125,-22.94921875,-36.62109375,99.12109375,0.0
1690406174.0174623,88.37890625,-24.4140625,-36.1328125,28.3203125,0.0
1690406174.021356,-472.16796875,-48.828125,-38.57421875,-109.375,0.0
1690406174.0252497,-276.3671875,-51.26953125,-39.55078125,-88.8671875,0.0
1690406174.0291433,401.3671875,-43.45703125,-44.921875,67.3828125,0.0
1690406174.0330372,284.66796875,-42.48046875,-39.0625,57.12890625,0.0
1690406174.0369308,-412.59765625,-25.87890625,-23.4375,-99.609375,0.0
1690406174.0408244,-404.296875,-29.78515625,-24.90234375,-113.76953125,0.0
1690406174.044718,216.30859375,-31.73828125,-40.52734375,11.23046875,0.0
1690406174.0486119,419.43359375,-30.2734375,-45.8984375,79.58984375,0.0
1690406174.0525055,-295.41015625,-41.015625,-32.71484375,-68.84765625,0.0
1690406174.0565488,-470.21484375,-42.48046875,-30.76171875,-130.37109375,0.0
1690406174.0604427,50.29296875,-36.62109375,-34.1796875,-28.80859375,0.0
1690406174.0643363,539.55078125,-30.2734375,-39.55078125,103.515625,0.0
1690406174.06823,-82.03125,-54.6875,-43.45703125,-26.85546875,0.0
1690406174.0721238,-494.62890625,-64.94140625,-32.71484375,-147.94921875,0.0
1690406174.0760174,-152.34375,-53.22265625,-42.48046875,-89.35546875,0.0
1690406174.079911,487.79296875,-38.0859375,-50.29296875,62.01171875,0.0
1690406174.0838048,134.27734375,-43.45703125,-36.1328125,17.578125,0.0
1690406174.0876985,-469.23828125,-58.59375,-45.8984375,-130.37109375,0.0
1690406174.091592,-311.5234375,-40.52734375,-46.875,-121.58203125,0.0
1690406174.095486,352.05078125,-35.64453125,-42.96875,42.96875,0.0
1690406174.0993795,316.89453125,-43.9453125,-43.45703125,64.94140625,0.0
1690406174.1034195,-387.20703125,-45.41015625,-41.9921875,-90.8203125,0.0
1690406174.1073134,-426.26953125,-45.41015625,-43.45703125,-126.953125,0.0
1690406174.111207,176.26953125,-45.41015625,-44.921875,-3.41796875,0.0
1690406174.1151006,465.33203125,-42.96875,-49.31640625,103.02734375,0.0
1690406174.1189945,-238.28125,-49.8046875,-44.921875,-47.36328125,0.0
1690406174.122888,-473.14453125,-51.7578125,-44.921875,-125.0,0.0
1690406174.126782,0.9765625,-37.59765625,-54.6875,-27.83203125,0.0
1690406174.1306756,545.41015625,-32.2265625,-51.26953125,115.72265625,0.0
1690406174.1345692,-7.8125,-31.25,-38.0859375,10.25390625,0.0
1690406174.138463,-467.7734375,-41.50390625,-50.29296875,-125.0,0.0
1690406174.1423566,-180.6640625,-47.8515625,-56.15234375,-79.1015625,0.0
1690406174.1462505,480.46875,-37.59765625,-46.875,79.1015625,0.0
1690406174.1502857,201.66015625,-41.50390625,-44.921875,44.921875,0.0
1690406174.1541793,-440.4296875,-56.640625,-37.109375,-111.81640625,0.0
1690406174.158073,-335.9375,-61.5234375,-40.52734375,-102.5390625,0.0
1690406174.1619668,315.4296875,-34.66796875,-40.52734375,61.03515625,0.0
1690406174.1658604,360.83984375,-19.04296875,-31.73828125,86.9140625,0.0
1690406174.1697543,-351.5625,-30.76171875,-27.83203125,-69.3359375,0.0
1690406174.1736479,-437.01171875,-34.66796875,-33.203125,-104.98046875,0.0
1690406174.1775417,125.48828125,-30.2734375,-41.50390625,9.27734375,0.0
1690406174.1814353,509.765625,-18.06640625,-41.50390625,107.421875,0.0
1690406174.1853292,-174.31640625,-34.66796875,-41.9921875,-38.57421875,0.0
1690406174.1892228,-476.5625,-45.8984375,-37.109375,-123.046875,0.0
1690406174.1931167,-38.0859375,-37.109375,-33.203125,-35.64453125,0.0
1690406174.1971414,551.26953125,-44.43359375,-37.59765625,104.00390625,0.0
1690406174.2010353,48.33984375,-58.59375,-29.296875,16.6015625,0.0
1690406174.2049289,-471.19140625,-45.41015625,-20.99609375,-107.91015625,0.0
1690406174.2088227,-223.14453125,-31.25,-28.3203125,-73.73046875,0.0
1690406174.2127163,441.89453125,-22.94921875,-32.2265625,71.2890625,0.0
1690406174.2166102,242.1875,-30.76171875,-25.390625,50.29296875,0.0
1690406174.2205038,-437.98828125,-54.19921875,-23.92578125,-97.65625,0.0
1690406174.2243977,-386.71875,-44.43359375,-23.4375,-111.328125,0.0
1690406174.2282913,254.39453125,-33.203125,-24.4140625,20.5078125,0.0
1690406174.2321851,401.85546875,-42.48046875,-25.390625,81.54296875,0.0
1690406174.2360787,-317.87109375,-43.9453125,-21.484375,-69.82421875,0.0
1690406174.2399726,-458.984375,-47.8515625,-20.99609375,-136.71875,0.0
1690406174.2439892,77.63671875,-42.96875,-28.3203125,-23.4375,0.0
1690406174.247883,519.53125,-39.0625,-35.15625,104.98046875,0.0
1690406174.2517767,-131.8359375,-62.5,-29.78515625,-25.390625,0.0
1690406174.2556705,-489.74609375,-45.41015625,-24.4140625,-135.7421875,0.0
1690406174.2595642,-97.16796875,-25.390625,-39.55078125,-67.3828125,0.0
1690406174.263458,519.53125,-35.64453125,-41.9921875,97.16796875,0.0
1690406174.2673516,87.40234375,-49.31640625,-35.64453125,26.3671875,0.0
1690406174.2712455,-484.86328125,-54.19921875,-44.43359375,-123.53515625,0.0
1690406174.2751393,-292.96875,-46.875,-44.921875,-112.3046875,0.0
1690406174.279033,379.39453125,-40.0390625,-40.0390625,44.921875,0.0
1690406174.2829268,282.71484375,-48.828125,-41.50390625,54.19921875,0.0
1690406174.2868204,-414.55078125,-56.640625,-47.36328125,-107.91015625,0.0
1690406174.290883,-409.1796875,-63.96484375,-51.7578125,-132.8125,0.0
1690406174.294777,203.61328125,-62.5,-43.9453125,2.44140625,0.0
1690406174.2986705,443.84765625,-40.52734375,-43.45703125,89.84375,0.0
1690406174.3025644,-257.32421875,-39.55078125,-47.36328125,-64.94140625,0.0
1690406174.3064582,-470.21484375,-50.78125,-49.31640625,-138.671875,0.0
1690406174.3103518,24.90234375,-48.828125,-46.38671875,-32.2265625,0.0
1690406174.3142457,558.59375,-35.15625,-43.45703125,100.5859375,0.0
1690406174.3181396,-37.59765625,-35.64453125,-47.36328125,-14.16015625,0.0
1690406174.3220332,-471.6796875,-42.96875,-36.62109375,-121.09375,0.0
1690406174.325927,-147.94921875,-50.29296875,-32.2265625,-63.96484375,0.0
1690406174.3298206,507.32421875,-39.55078125,-41.50390625,88.8671875,0.0
1690406174.3337145,168.45703125,-38.0859375,-45.8984375,29.78515625,0.0
1690406174.337771,-444.82421875,-54.19921875,-42.96875,-114.74609375,0.0
1690406174.3416648,-303.7109375,-54.19921875,-36.1328125,-99.12109375,0.0
1690406174.3455586,348.14453125,-40.0390625,-40.0390625,44.43359375,0.0
1690406174.3494523,351.5625,-33.69140625,-43.9453125,72.75390625,0.0
1690406174.353346,-354.4921875,-37.59765625,-39.0625,-84.9609375,0.0
1690406174.35724,-407.71484375,-35.64453125,-38.57421875,-121.58203125,0.0
1690406174.3611336,155.76171875,-24.4140625,-35.64453125,-0.9765625,0.0
1690406174.3650274,465.33203125,-21.484375,-26.3671875,95.703125,0.0
1690406174.3689213,-206.54296875,-38.57421875,-25.87890625,-37.109375,0.0
1690406174.372815,-468.75,-41.9921875,-27.34375,-128.41796875,0.0
1690406174.3767087,-5.37109375,-23.4375,-24.90234375,-44.921875,0.0
1690406174.3806026,553.22265625,-20.01953125,-28.3203125,113.76953125,0.0
1690406174.3846524,12.6953125,-30.2734375,-29.78515625,12.6953125,0.0
1690406174.388546,-469.7265625,-32.2265625,-26.3671875,-121.09375,0.0
1690406174.3924398,-187.5,-23.4375,-25.87890625,-71.77734375,0.0
1690406174.3963337,468.26171875,-34.66796875,-24.90234375,83.0078125,0.0
1690406174.4002275,206.0546875,-50.29296875,-26.85546875,48.33984375,0.0
1690406174.4041212,-450.68359375,-43.45703125,-32.2265625,-105.95703125,0.0
1690406174.408015,-363.76953125,-41.50390625,-37.109375,-118.1640625,0.0
1690406174.4119089,284.1796875,-37.109375,-40.52734375,30.76171875,0.0
1690406174.4158027,371.58203125,-41.9921875,-34.66796875,82.03125,0.0
1690406174.4196963,-351.07421875,-46.38671875,-32.71484375,-89.35546875,0.0
1690406174.4235902,-454.1015625,-40.52734375,-39.0625,-140.13671875,0.0
1690406174.427484,101.5625,-42.96875,-48.33984375,-21.484375,0.0
1690406174.4315274,497.55859375,-36.62109375,-42.96875,94.7265625,0.0
1690406174.4354212,-173.33984375,-52.734375,-27.83203125,-34.1796875,0.0
1690406174.439315,-491.2109375,-58.59375,-25.87890625,-125.9765625,0.0
1690406174.443209,-77.63671875,-39.55078125,-31.73828125,-62.01171875,0.0
1690406174.4471028,524.90234375,-29.296875,-36.62109375,82.03125,0.0
1690406174.4509964,59.5703125,-40.0390625,-40.52734375,9.765625,0.0
1690406174.4548903,-483.88671875,-57.12890625,-44.43359375,-130.859375,0.0
1690406174.458784,-262.6953125,-61.03515625,-35.64453125,-100.09765625,0.0
1690406174.462678,404.296875,-52.24609375,-36.1328125,54.6875,0.0
1690406174.4665718,241.69921875,-44.921875,-41.50390625,39.55078125,0.0
1690406174.4704654,-434.08203125,-54.19921875,-40.0390625,-118.1640625,0.0
1690406174.4743593,-396.484375,-47.8515625,-45.8984375,-139.6484375,0.0
1690406174.4783957,216.796875,-36.62109375,-45.8984375,7.8125,0.0
1690406174.4822896,396.484375,-41.015625,-37.59765625,72.75390625,0.0
1690406174.4861834,-314.94140625,-43.45703125,-33.69140625,-90.8203125,0.0
1690406174.4900773,-470.703125,-42.48046875,-42.48046875,-148.92578125,0.0
1690406174.493971,46.875,-37.109375,-49.8046875,-38.57421875,0.0
1690406174.497865,512.6953125,-38.57421875,-45.41015625,89.84375,0.0
1690406174.5017586,-108.3984375,-44.921875,-42.48046875,-29.78515625,0.0
1690406174.5056524,-500.9765625,-48.828125,-44.921875,-131.34765625,0.0
1690406174.5095463,-136.71875,-38.0859375,-49.31640625,-64.453125,0.0
1690406174.5134401,509.765625,-21.97265625,-42.48046875,91.30859375,0.0
1690406174.517334,121.58203125,-35.64453125,-43.9453125,26.3671875,0.0
1690406174.5212278,-474.12109375,-42.48046875,-50.29296875,-122.55859375,0.0
1690406174.5252578,-296.38671875,-34.66796875,-54.6875,-109.86328125,0.0
1690406174.5291517,376.953125,-33.69140625,-53.7109375,50.29296875,0.0
1690406174.5330455,316.40625,-31.25,-39.0625,71.2890625,0.0
1690406174.5369394,-382.32421875,-31.73828125,-33.203125,-84.47265625,0.0
1690406174.5408332,-403.80859375,-40.0390625,-35.15625,-117.1875,0.0
1690406174.544727,197.265625,-31.73828125,-33.69140625,26.3671875,0.0
1690406174.5486207,464.84375,-33.69140625,-27.34375,126.46484375,0.0
1690406174.5525146,-237.79296875,-39.55078125,-26.85546875,-28.80859375,0.0
1690406174.5564084,-451.66015625,-24.4140625,-34.66796875,-109.375,0.0
1690406174.5603023,29.78515625,-23.92578125,-38.57421875,-10.25390625,0.0
1690406174.564196,549.8046875,-28.3203125,-41.015625,127.44140625,0.0
1690406174.56809,-19.53125,-32.2265625,-33.69140625,7.8125,0.0
1690406174.5721111,-457.51953125,-35.64453125,-20.5078125,-121.09375,0.0
1690406174.576005,-151.85546875,-38.0859375,-28.80859375,-65.4296875,0.0
1690406174.5798988,500.9765625,-27.83203125,-41.015625,99.12109375,0.0
1690406174.5837927,194.82421875,-31.73828125,-35.64453125,48.33984375,0.0
1690406174.5876865,-426.7578125,-51.26953125,-33.203125,-107.421875,0.0
1690406174.5915804,-318.359375,-44.43359375,-31.73828125,-104.98046875,0.0
1690406174.5954742,315.4296875,-38.57421875,-37.109375,38.57421875,0.0
1690406174.599368,360.83984375,-35.15625,-40.0390625,68.359375,0.0
1690406174.603262,-347.65625,-31.25,-40.52734375,-99.12109375,0.0
1690406174.6071558,-431.15234375,-45.8984375,-45.41015625,-136.71875,0.0
1690406174.6110497,142.08984375,-40.52734375,-40.52734375,-13.671875,0.0
1690406174.6149435,482.421875,-26.3671875,-31.73828125,87.890625,0.0
1690406174.61896,-206.54296875,-40.0390625,-32.71484375,-51.26953125,0.0
1690406174.622854,-479.4921875,-52.24609375,-36.1328125,-140.13671875,0.0
1690406174.6267478,-43.9453125,-47.36328125,-41.015625,-55.17578125,0.0
1690406174.6306417,528.80859375,-37.109375,-41.015625,86.9140625,0.0
1690406174.6345356,19.53125,-40.0390625,-37.59765625,-5.37109375,0.0
1690406174.6384294,-491.2109375,-61.03515625,-40.0390625,-128.90625,0.0
1690406174.6423233,-238.28125,-62.01171875,-42.48046875,-90.8203125,0.0
1690406174.646217,435.05859375,-25.87890625,-44.921875,67.87109375,0.0
1690406174.650111,219.7265625,-27.34375,-41.015625,40.0390625,0.0
1690406174.6540048,-449.21875,-52.734375,-31.73828125,-119.140625,0.0
1690406174.6578987,-381.8359375,-48.828125,-37.109375,-118.1640625,0.0
1690406174.6617925,262.6953125,-34.1796875,-40.0390625,19.53125,0.0
1690406174.6658556,383.7890625,-43.45703125,-38.0859375,82.03125,0.0
1690406174.6697495,-340.8203125,-58.59375,-33.203125,-68.84765625,0.0
1690406174.6736434,-457.03125,-51.26953125,-29.296875,-130.37109375,0.0
1690406174.6775372,95.21484375,-42.48046875,-32.2265625,-4.8828125,0.0
1690406174.681431,510.7421875,-44.43359375,-37.109375,114.2578125,0.0
1690406174.685325,-149.90234375,-50.78125,-37.59765625,-27.34375,0.0
1690406174.689219,-492.1875,-50.78125,-39.55078125,-128.41796875,0.0
1690406174.6931129,-80.56640625,-40.0390625,-41.015625,-51.26953125,0.0
1690406174.6970067,531.73828125,-44.921875,-40.0390625,106.93359375,0.0
1690406174.7009006,81.0546875,-53.7109375,-38.57421875,29.78515625,0.0
1690406174.7047944,-470.21484375,-41.015625,-33.69140625,-109.86328125,0.0
1690406174.7086883,-261.23046875,-35.64453125,-28.80859375,-91.30859375,0.0
1690406174.7127488,403.80859375,-29.78515625,-27.34375,69.82421875,0.0
1690406174.7166426,279.78515625,-29.78515625,-27.83203125,62.98828125,0.0
1690406174.7205365,-404.78515625,-40.0390625,-27.34375,-98.14453125,0.0
1690406174.7244303,-391.6015625,-41.9921875,-24.90234375,-107.91015625,0.0
1690406174.7283242,222.16796875,-38.0859375,-33.203125,29.78515625,0.0
1690406174.7322183,431.15234375,-35.64453125,-35.64453125,95.703125,0.0
1690406174.736112,-277.83203125,-36.62109375,-28.3203125,-57.12890625,0.0
1690406174.740006,-454.58984375,-40.0390625,-25.390625,-120.1171875,0.0
1690406174.7438998,47.8515625,-44.921875,-23.92578125,-20.99609375,0.0
1690406174.7477937,533.203125,-38.57421875,-22.94921875,109.86328125,0.0
1690406174.7516875,-72.75390625,-30.76171875,-25.390625,-19.53125,0.0
1690406174.7555816,-482.91015625,-51.26953125,-22.94921875,-123.046875,0.0
1690406174.7596312,-135.7421875,-54.6875,-35.64453125,-59.08203125,0.0
1690406174.763525,499.51171875,-31.25,-43.45703125,84.47265625,0.0
1690406174.7674189,125.9765625,-36.62109375,-38.0859375,28.3203125,0.0
1690406174.7713127,-475.5859375,-55.17578125,-36.1328125,-119.62890625,0.0
1690406174.7752068,-326.66015625,-53.7109375,-29.296875,-113.28125,0.0
1690406174.7791007,345.703125,-33.69140625,-26.85546875,46.875,0.0
1690406174.7829945,324.70703125,-27.34375,-29.296875,70.3125,0.0
1690406174.7868884,-391.11328125,-39.0625,-29.78515625,-104.98046875,0.0
1690406174.7907825,-428.7109375,-46.875,-31.25,-135.25390625,0.0
1690406174.7946763,157.71484375,-46.875,-40.0390625,-5.37109375,0.0
1690406174.7985702,457.03125,-37.59765625,-42.48046875,81.0546875,0.0
1690406174.802464,-243.1640625,-41.50390625,-38.57421875,-69.82421875,0.0
1690406174.8065054,-492.67578125,-54.6875,-38.0859375,-155.2734375,0.0
1690406174.8103993,-10.7421875,-51.7578125,-42.48046875,-55.17578125,0.0
1690406174.8142934,534.1796875,-40.52734375,-55.6640625,83.984375,0.0
1690406174.8181872,-32.2265625,-53.22265625,-47.8515625,-22.94921875,0.0
1690406174.822081,-498.046875,-67.87109375,-33.203125,-148.92578125,0.0
1690406174.825975,-204.1015625,-59.5703125,-34.66796875,-94.23828125,0.0
1690406174.829869,458.984375,-48.33984375,-32.71484375,55.6640625,0.0
1690406174.833763,181.640625,-62.01171875,-36.1328125,20.01953125,0.0
1690406174.8376567,-461.42578125,-57.6171875,-37.109375,-115.234375,0.0
1690406174.8415508,-352.05078125,-43.9453125,-41.50390625,-126.46484375,0.0
1690406174.8454447,293.9453125,-43.45703125,-46.875,17.08984375,0.0
1690406174.8493385,359.86328125,-39.0625,-42.96875,67.87109375,0.0
1690406174.8533738,-353.515625,-43.9453125,-41.015625,-103.515625,0.0
1690406174.8572679,-438.4765625,-41.9921875,-39.0625,-150.87890625,0.0
1690406174.8611617,125.0,-40.0390625,-47.36328125,-16.6015625,0.0
1690406174.8650556,505.37109375,-32.71484375,-45.8984375,98.6328125,0.0
1690406174.8689497,-164.0625,-38.57421875,-38.57421875,-38.0859375,0.0
1690406174.8728435,-475.09765625,-54.6875,-49.8046875,-131.8359375,0.0
1690406174.8767374,-51.26953125,-47.36328125,-49.31640625,-43.45703125,0.0
1690406174.8806314,547.8515625,-35.15625,-34.1796875,113.28125,0.0
1690406174.8845253,52.24609375,-35.15625,-28.80859375,26.85546875,0.0
1690406174.8884194,-474.12109375,-31.73828125,-40.0390625,-108.88671875,0.0
1690406174.8923132,-239.74609375,-33.69140625,-43.45703125,-78.61328125,0.0
1690406174.896207,424.8046875,-22.4609375,-34.1796875,76.66015625,0.0
1690406174.9002354,249.0234375,-21.484375,-30.2734375,61.5234375,0.0
1690406174.9041293,-430.6640625,-41.015625,-27.34375,-94.23828125,0.0
1690406174.9080234,-386.71875,-48.33984375,-34.1796875,-116.2109375,0.0
1690406174.9119172,240.234375,-32.2265625,-42.96875,18.06640625,0.0
1690406174.9158113,404.296875,-28.80859375,-40.52734375,82.03125,0.0
1690406174.9197052,-311.03515625,-47.8515625,-38.0859375,-68.84765625,0.0
1690406174.923599,-465.33203125,-50.78125,-37.109375,-126.953125,0.0
1690406174.927493,73.2421875,-47.8515625,-39.55078125,-21.97265625,0.0
1690406174.931387,531.25,-35.64453125,-41.9921875,95.703125,0.0
1690406174.935281,-103.515625,-31.25,-36.1328125,-31.25,0.0
1690406174.939175,-474.12109375,-35.64453125,-34.1796875,-133.30078125,0.0
1690406174.9430687,-107.91015625,-36.62109375,-38.57421875,-61.03515625,0.0
1690406174.9470909,517.578125,-26.85546875,-43.45703125,91.30859375,0.0
1690406174.9509847,116.2109375,-28.80859375,-53.7109375,17.08984375,0.0
1690406174.9548788,-462.40234375,-40.0390625,-57.6171875,-128.41796875,0.0
1690406174.9587727,-291.50390625,-41.9921875,-52.734375,-115.72265625,0.0
1690406174.9626667,375.48828125,-41.9921875,-55.6640625,54.6875,0.0
1690406174.9665606,290.0390625,-46.38671875,-52.734375,73.73046875,0.0
1690406174.9704547,-406.25,-55.17578125,-46.38671875,-99.12109375,0.0
1690406174.9743485,-400.87890625,-49.31640625,-36.1328125,-119.62890625,0.0
1690406174.9782426,213.8671875,-47.36328125,-38.0859375,15.13671875,0.0
1690406174.9821365,462.890625,-42.48046875,-36.1328125,86.9140625,0.0
1690406174.9860303,-254.39453125,-35.15625,-37.59765625,-72.265625,0.0
1690406174.9899244,-464.84375,-34.66796875,-39.55078125,-148.92578125,0.0
1690406174.9939919,32.71484375,-37.59765625,-35.64453125,-47.8515625,0.0
1690406174.9978857,543.9453125,-30.76171875,-37.59765625,102.5390625,0.0
1690406175.0017798,-51.26953125,-39.55078125,-42.96875,-4.8828125,0.0
1690406175.0056736,-487.79296875,-46.38671875,-43.9453125,-130.859375,0.0
1690406175.0095677,-161.1328125,-45.41015625,-37.59765625,-84.47265625,0.0
1690406175.0134616,488.76953125,-47.8515625,-39.55078125,83.49609375,0.0
1690406175.0173557,148.4375,-48.33984375,-46.38671875,49.31640625,0.0
1690406175.0212498,-469.7265625,-43.45703125,-41.015625,-107.421875,0.0
1690406175.0251436,-336.9140625,-38.0859375,-37.59765625,-101.07421875,0.0
1690406175.0290377,323.73046875,-44.921875,-38.0859375,48.33984375,0.0
1690406175.0329316,337.890625,-38.57421875,-39.0625,70.80078125,0.0
1690406175.0368257,-376.46484375,-28.3203125,-37.109375,-100.09765625,0.0
1690406175.040883,-444.82421875,-33.203125,-33.69140625,-128.41796875,0.0
1690406175.044777,141.6015625,-29.296875,-43.45703125,-2.9296875,0.0
1690406175.048671,488.76953125,-24.4140625,-45.8984375,84.9609375,0.0
1690406175.052565,-208.0078125,-37.59765625,-41.50390625,-46.875,0.0
1690406175.056459,-473.14453125,-47.36328125,-43.45703125,-122.0703125,0.0
1690406175.060353,-17.08984375,-41.9921875,-27.34375,-38.57421875,0.0
1690406175.064247,551.7578125,-38.0859375,-15.13671875,102.5390625,0.0
1690406175.068141,21.484375,-42.96875,-20.01953125,0.48828125,0.0
1690406175.072035,-480.46875,-45.8984375,-21.484375,-125.0,0.0
1690406175.075929,-206.54296875,-53.7109375,-9.765625,-75.68359375,0.0
1690406175.079823,470.703125,-32.71484375,-8.7890625,85.44921875,0.0
1690406175.0837169,236.328125,-18.5546875,-0.48828125,61.5234375,0.0
1690406175.0877688,-430.6640625,-38.0859375,11.23046875,-101.5625,0.0
1690406175.091663,-366.69921875,-45.41015625,-2.44140625,-107.91015625,0.0
1690406175.0955567,283.69140625,-31.25,-11.71875,35.15625,0.0
1690406175.0994508,390.625,-39.0625,3.90625,88.8671875,0.0
1690406175.103345,-342.7734375,-58.10546875,12.6953125,-74.70703125,0.0
1690406175.1072388,-446.77734375,-53.22265625,14.16015625,-131.34765625,0.0
1690406175.1111329,119.62890625,-34.66796875,12.6953125,-6.34765625,0.0
1690406175.115027,524.4140625,-24.4140625,13.671875,108.3984375,0.0
1690406175.1189208,-143.5546875,-57.12890625,21.97265625,-26.85546875,0.0
1690406175.122815,-479.98046875,-63.4765625,10.25390625,-130.859375,0.0
1690406175.126709,-73.73046875,-33.203125,0.9765625,-59.5703125,0.0
1690406175.1306028,538.0859375,-31.73828125,6.8359375,97.65625,0.0
1690406175.1346476,72.265625,-33.69140625,11.71875,15.13671875,0.0
1690406175.1385417,-481.93359375,-47.36328125,11.71875,-131.34765625,0.0
1690406175.1424358,-268.5546875,-57.12890625,-5.37109375,-115.234375,0.0
1690406175.1463296,396.97265625,-49.8046875,-9.27734375,46.875,0.0
1690406175.1502237,252.9296875,-50.78125,-2.9296875,46.38671875,0.0
1690406175.1541178,-436.03515625,-50.78125,-3.41796875,-111.328125,0.0
1690406175.158012,-407.71484375,-55.6640625,-1.46484375,-134.765625,0.0
1690406175.1619058,216.30859375,-58.59375,-2.9296875,6.8359375,0.0
1690406175.1657999,412.59765625,-51.7578125,-3.90625,87.890625,0.0
1690406175.169694,-302.24609375,-36.62109375,-6.8359375,-79.58984375,0.0
1690406175.1735878,-468.26171875,-35.64453125,-14.6484375,-142.578125,0.0
1690406175.177482,49.8046875,-35.15625,-20.01953125,-36.62109375,0.0
1690406175.1815207,519.04296875,-29.78515625,-17.08984375,82.03125,0.0
1690406175.1854148,-99.12109375,-33.69140625,-10.25390625,-29.78515625,0.0
1690406175.189309,-493.65234375,-35.64453125,-10.7421875,-133.7890625,0.0
1690406175.1932027,-137.6953125,-38.57421875,-16.6015625,-82.51953125,0.0
1690406175.1970968,511.71875,-35.64453125,-15.13671875,80.078125,0.0
1690406175.200991,136.23046875,-44.921875,-11.71875,30.76171875,0.0
1690406175.204885,-470.703125,-53.22265625,-17.08984375,-124.51171875,0.0
1690406175.2087789,-319.3359375,-57.6171875,-19.04296875,-98.6328125,0.0
1690406175.212673,348.14453125,-48.33984375,-17.578125,58.10546875,0.0
1690406175.216567,300.29296875,-30.2734375,-20.5078125,64.94140625,0.0
1690406175.2204611,-402.34375,-36.62109375,-19.04296875,-91.30859375,0.0
1690406175.224355,-418.9453125,-40.0390625,-12.20703125,-112.79296875,0.0
1690406175.2283869,172.36328125,-30.2734375,-27.34375,5.859375,0.0
1690406175.232281,454.1015625,-29.78515625,-32.2265625,87.890625,0.0
1690406175.2361748,-235.3515625,-37.109375,-14.16015625,-42.48046875,0.0
1690406175.240069,-458.49609375,-39.55078125,-12.6953125,-118.1640625,0.0
1690406175.243963,18.06640625,-38.57421875,-17.08984375,-32.2265625,0.0
1690406175.247857,558.10546875,-32.2265625,-16.6015625,118.1640625,0.0
1690406175.2517512,-4.8828125,-44.921875,-19.04296875,11.71875,0.0
1690406175.2556453,-469.7265625,-60.546875,-26.3671875,-113.76953125,0.0
1690406175.2595391,-173.33984375,-40.52734375,-25.390625,-71.77734375,0.0
1690406175.2634332,481.4453125,-26.3671875,-20.5078125,86.42578125,0.0
1690406175.2673273,169.921875,-43.9453125,-24.4140625,48.828125,0.0
1690406175.2712214,-467.7734375,-44.921875,-21.484375,-112.3046875,0.0
1690406175.275247,-351.07421875,-39.0625,-23.4375,-114.2578125,0.0
1690406175.2791412,295.41015625,-35.64453125,-42.48046875,22.94921875,0.0
1690406175.2830353,346.19140625,-34.1796875,-42.48046875,65.91796875,0.0
1690406175.2869294,-371.09375,-50.29296875,-31.25,-86.42578125,0.0
1690406175.2908232,-415.0390625,-52.734375,-40.52734375,-125.9765625,0.0
1690406175.2947173,168.45703125,-48.33984375,-34.66796875,4.39453125,0.0
1690406175.2986114,478.515625,-50.29296875,-23.92578125,104.4921875,0.0
1690406175.3025055,-200.1953125,-44.921875,-33.69140625,-45.8984375,0.0
1690406175.3063996,-485.83984375,-33.203125,-38.0859375,-152.34375,0.0
1690406175.3102937,-44.921875,-31.25,-33.203125,-62.98828125,0.0
1690406175.3141878,534.66796875,-33.69140625,-34.1796875,95.21484375,0.0
1690406175.3180819,20.5078125,-45.41015625,-39.55078125,0.48828125,0.0
1690406175.3221006,-487.79296875,-50.78125,-44.921875,-127.44140625,0.0
1690406175.3259947,-239.2578125,-45.41015625,-38.0859375,-84.47265625,0.0
1690406175.3298888,429.6875,-40.0390625,-33.203125,62.5,0.0
1690406175.333783,232.91015625,-41.015625,-28.80859375,45.8984375,0.0
1690406175.337677,-436.03515625,-44.43359375,-32.2265625,-104.98046875,0.0
1690406175.341571,-379.8828125,-62.98828125,-39.55078125,-128.41796875,0.0
1690406175.3454652,247.55859375,-69.82421875,-37.59765625,15.13671875,0.0
1690406175.3493593,391.11328125,-41.50390625,-41.9921875,76.171875,0.0
1690406175.3532534,-323.2421875,-37.59765625,-39.0625,-85.9375,0.0
1690406175.3571475,-456.54296875,-55.17578125,-31.25,-139.6484375,0.0
1690406175.3610413,83.0078125,-51.26953125,-32.71484375,-25.87890625,0.0
1690406175.3649354,515.13671875,-30.76171875,-39.0625,95.21484375,0.0
1690406175.3689497,-124.51171875,-35.15625,-41.50390625,-31.25,0.0
1690406175.3728437,-482.421875,-49.8046875,-36.62109375,-135.25390625,0.0
1690406175.3767378,-94.7265625,-43.9453125,-35.15625,-60.05859375,0.0
1690406175.380632,530.76171875,-32.71484375,-32.2265625,95.21484375,0.0
1690406175.384526,100.09765625,-47.8515625,-25.87890625,20.99609375,0.0
1690406175.38842,-465.8203125,-56.640625,-30.76171875,-120.1171875,0.0
1690406175.3923142,-277.83203125,-44.921875,-39.55078125,-100.5859375,0.0
1690406175.3962083,394.53125,-18.06640625,-36.62109375,56.640625,0.0
1690406175.4001024,298.828125,-13.671875,-34.1796875,63.4765625,0.0
1690406175.4039965,-394.53125,-27.83203125,-31.25,-86.9140625,0.0
1690406175.4078906,-403.3203125,-31.25,-32.71484375,-117.1875,0.0
1690406175.4117846,201.66015625,-28.3203125,-37.59765625,7.8125,0.0
1690406175.4158416,436.03515625,-28.3203125,-39.55078125,93.26171875,0.0
1690406175.4197357,-269.04296875,-37.59765625,-33.203125,-60.05859375,0.0
1690406175.4236298,-458.0078125,-39.55078125,-24.90234375,-138.671875,0.0
1690406175.4275239,47.36328125,-38.57421875,-29.78515625,-34.1796875,0.0
1690406175.431418,542.48046875,-50.78125,-38.0859375,116.2109375,0.0
1690406175.435312,-70.80078125,-61.03515625,-39.55078125,-23.4375,0.0
1690406175.4392061,-483.3984375,-46.875,-36.62109375,-145.01953125,0.0
1690406175.4431002,-146.484375,-29.296875,-39.55078125,-73.2421875,0.0
1690406175.4469943,491.69921875,-21.97265625,-46.875,73.73046875,0.0
1690406175.4508884,143.06640625,-34.1796875,-48.828125,18.5546875,0.0
1690406175.4547825,-459.9609375,-40.0390625,-54.19921875,-130.37109375,0.0
1690406175.4586766,-312.98828125,-37.109375,-49.31640625,-121.09375,0.0
1690406175.4627264,343.26171875,-36.1328125,-39.0625,36.1328125,0.0
1690406175.4666204,330.078125,-36.62109375,-36.1328125,66.89453125,0.0
1690406175.4705145,-378.90625,-38.57421875,-39.55078125,-91.30859375,0.0
1690406175.4744089,-416.50390625,-54.6875,-39.55078125,-125.0,0.0
1690406175.478303,162.109375,-68.84765625,-35.15625,0.48828125,0.0
1690406175.482197,464.84375,-46.38671875,-39.0625,96.19140625,0.0
1690406175.4860911,-229.98046875,-38.0859375,-43.9453125,-53.22265625,0.0
1690406175.4899852,-473.14453125,-44.921875,-41.015625,-137.6953125,0.0
1690406175.4938793,-11.71875,-46.38671875,-40.0390625,-49.8046875,0.0
1690406175.4977734,538.57421875,-34.66796875,-41.9921875,91.796875,0.0
1690406175.5016675,8.30078125,-25.87890625,-33.69140625,-6.8359375,0.0
1690406175.5055616,-467.7734375,-31.73828125,-34.1796875,-126.46484375,0.0
1690406175.509606,-192.3828125,-31.25,-42.96875,-75.1953125,0.0
1690406175.5135,471.6796875,-17.08984375,-35.15625,76.171875,0.0
1690406175.517394,208.49609375,-22.4609375,-35.64453125,45.8984375,0.0
1690406175.5212882,-454.1015625,-43.45703125,-36.1328125,-108.88671875,0.0
1690406175.5251822,-355.46875,-41.9921875,-34.1796875,-115.234375,0.0
1690406175.5290763,293.9453125,-28.3203125,-41.015625,34.66796875,0.0
1690406175.5329707,379.39453125,-22.94921875,-41.50390625,85.9375,0.0
1690406175.5368648,-332.51953125,-28.3203125,-41.9921875,-73.73046875,0.0
1690406175.5407588,-438.96484375,-49.8046875,-43.9453125,-123.046875,0.0
1690406175.544653,123.53515625,-41.015625,-42.96875,0.0,0.0
1690406175.548547,514.6484375,-25.87890625,-49.8046875,109.86328125,0.0
1690406175.5524411,-155.76171875,-42.48046875,-38.57421875,-21.484375,0.0
1690406175.556479,-468.26171875,-43.45703125,-18.06640625,-118.65234375,0.0
1690406175.5603733,-58.59375,-34.1796875,-15.13671875,-48.828125,0.0
1690406175.5642674,532.2265625,-33.69140625,-10.25390625,104.4921875,0.0
1690406175.5681615,52.734375,-40.52734375,-3.90625,18.06640625,0.0
1690406175.5720556,-485.3515625,-49.31640625,-3.90625,-124.51171875,0.0
1690406175.5759497,-241.2109375,-48.33984375,-10.25390625,-84.47265625,0.0
1690406175.579844,390.625,-33.69140625,-12.20703125,70.80078125,0.0
1690406175.583738,210.44921875,-32.71484375,-11.23046875,62.01171875,0.0
1690406175.5876322,-420.41015625,-39.55078125,-18.06640625,-95.21484375,0.0
1690406175.5915263,-387.6953125,-35.15625,-18.06640625,-127.9296875,0.0
1690406175.5954206,248.53515625,-36.62109375,-14.6484375,26.3671875,0.0
1690406175.5993147,418.9453125,-38.0859375,-12.20703125,100.5859375,0.0
1690406175.603346,-304.19921875,-41.50390625,-13.18359375,-58.59375,0.0
1690406175.6072404,-449.70703125,-42.48046875,-16.6015625,-119.62890625,0.0
1690406175.6111345,73.2421875,-41.015625,-25.390625,-11.71875,0.0
1690406175.6150286,525.87890625,-36.62109375,-29.296875,100.5859375,0.0
1690406175.6189227,-107.91015625,-44.921875,-14.6484375,-34.66796875,0.0
1690406175.622817,-476.5625,-51.26953125,-3.41796875,-128.41796875,0.0
1690406175.6267111,-97.65625,-58.10546875,-6.34765625,-62.5,0.0
1690406175.6306052,526.85546875,-54.19921875,-14.16015625,93.26171875,0.0
1690406175.6344995,126.46484375,-35.15625,-9.765625,31.25,0.0
1690406175.6383936,-460.9375,-35.64453125,-12.6953125,-126.953125,0.0
1690406175.6422877,-287.109375,-41.50390625,-23.4375,-110.3515625,0.0
1690406175.6461818,375.48828125,-42.48046875,-28.80859375,48.33984375,0.0
1690406175.6502063,294.43359375,-42.96875,-31.25,52.734375,0.0
1690406175.6541007,-405.2734375,-43.45703125,-29.296875,-112.79296875,0.0
1690406175.6579947,-416.9921875,-48.828125,-26.85546875,-136.23046875,0.0
1690406175.6618888,187.01171875,-42.48046875,-22.94921875,3.90625,0.0
1690406175.6657832,445.3125,-37.59765625,-27.34375,76.171875,0.0
1690406175.6696773,-259.765625,-52.734375,-39.0625,-70.3125,0.0
1690406175.6735713,-474.12109375,-55.6640625,-38.0859375,-127.44140625,0.0
1690406175.6774657,8.30078125,-61.5234375,-32.2265625,-32.71484375,0.0
1690406175.6813598,528.80859375,-47.36328125,-31.25,94.7265625,0.0
1690406175.6852539,-59.08203125,-30.76171875,-33.69140625,-17.578125,0.0
1690406175.6891482,-510.25390625,-39.0625,-40.52734375,-146.484375,0.0
1690406175.6930423,-188.4765625,-43.45703125,-44.921875,-99.12109375,0.0
1690406175.6970608,480.46875,-31.25,-39.0625,79.58984375,0.0
1690406175.700955,161.1328125,-32.2265625,-35.64453125,35.15625,0.0
1690406175.7048492,-473.6328125,-41.50390625,-38.0859375,-119.140625,0.0
1690406175.7087433,-346.6796875,-45.8984375,-39.55078125,-112.79296875,0.0
1690406175.7126377,324.70703125,-43.45703125,-42.48046875,37.59765625,0.0
1690406175.7165318,344.7265625,-42.96875,-46.38671875,69.3359375,0.0
1690406175.7204258,-378.41796875,-57.12890625,-41.50390625,-89.84375,0.0
1690406175.7243202,-437.98828125,-52.24609375,-47.36328125,-136.23046875,0.0
1690406175.7282143,147.4609375,-35.15625,-48.828125,-11.71875,0.0
1690406175.7321084,489.74609375,-35.64453125,-41.50390625,105.46875,0.0
1690406175.7360027,-195.3125,-40.0390625,-43.45703125,-35.15625,0.0
1690406175.7398968,-469.23828125,-32.2265625,-46.875,-117.67578125,0.0
1690406175.743913,-16.11328125,-35.15625,-48.828125,-39.0625,0.0
1690406175.747807,550.29296875,-33.203125,-39.0625,110.83984375,0.0
1690406175.7517014,24.90234375,-35.64453125,-26.85546875,21.484375,0.0
1690406175.7555954,-459.9609375,-45.8984375,-26.3671875,-117.67578125,0.0
1690406175.7594898,-200.1953125,-46.875,-30.2734375,-80.56640625,0.0
1690406175.7633839,448.73046875,-39.55078125,-28.80859375,79.58984375,0.0
1690406175.767278,226.07421875,-37.109375,-26.85546875,56.640625,0.0
1690406175.7711723,-431.15234375,-42.48046875,-30.2734375,-104.4921875,0.0
1690406175.7750664,-371.09375,-45.8984375,-33.203125,-119.140625,0.0
1690406175.7789607,271.97265625,-44.921875,-37.59765625,24.90234375,0.0
1690406175.7828548,391.11328125,-44.43359375,-36.1328125,75.1953125,0.0
1690406175.786749,-326.171875,-39.0625,-36.62109375,-83.984375,0.0
1690406175.7908049,-442.87109375,-34.1796875,-37.59765625,-135.25390625,0.0
1690406175.794699,104.4921875,-31.25,-33.203125,-20.01953125,0.0
1690406175.7985933,517.08984375,-24.4140625,-36.62109375,95.703125,0.0
1690406175.8024874,-150.390625,-30.76171875,-39.55078125,-33.203125,0.0
1690406175.8063817,-495.60546875,-39.55078125,-39.55078125,-131.34765625,0.0
1690406175.8102758,-91.30859375,-36.62109375,-37.59765625,-51.26953125,0.0
1690406175.8141701,519.04296875,-21.97265625,-35.15625,102.5390625,0.0
1690406175.8180642,67.3828125,-27.34375,-27.34375,17.08984375,0.0
1690406175.8219585,-493.65234375,-50.29296875,-34.66796875,-124.0234375,0.0
1690406175.8258526,-285.15625,-56.640625,-44.921875,-100.5859375,0.0
1690406175.829747,395.99609375,-30.76171875,-44.921875,59.08203125,0.0
1690406175.833641,264.6484375,-23.92578125,-47.36328125,50.78125,0.0
1690406175.8377385,-432.6171875,-46.38671875,-45.8984375,-121.58203125,0.0
1690406175.8416328,-418.9453125,-41.50390625,-49.31640625,-140.625,0.0
1690406175.845527,211.9140625,-21.97265625,-53.7109375,1.953125,0.0
1690406175.8494213,421.38671875,-32.2265625,-50.78125,71.2890625,0.0
1690406175.8533154,-293.45703125,-50.78125,-49.31640625,-81.0546875,0.0
1690406175.8572097,-469.23828125,-46.875,-47.36328125,-143.5546875,0.0
1690406175.861104,43.9453125,-37.59765625,-46.875,-35.15625,0.0
1690406175.864998,529.296875,-32.2265625,-47.8515625,99.609375,0.0
1690406175.8688924,-91.30859375,-40.0390625,-48.828125,-18.06640625,0.0
1690406175.8727865,-491.69921875,-54.19921875,-56.15234375,-133.30078125,0.0
1690406175.8766809,-136.23046875,-40.52734375,-62.01171875,-79.1015625,0.0
1690406175.880575,506.8359375,-18.5546875,-62.98828125,88.37890625,0.0
1690406175.8846161,139.6484375,-20.01953125,-61.5234375,34.1796875,0.0
1690406175.8885102,-461.9140625,-34.1796875,-50.29296875,-119.62890625,0.0
1690406175.8924046,-309.5703125,-33.203125,-39.0625,-102.05078125,0.0
1690406175.896299,347.16796875,-28.3203125,-42.96875,45.41015625,0.0
1690406175.900193,320.3125,-38.57421875,-39.55078125,70.3125,0.0
1690406175.9040873,-375.9765625,-47.36328125,-33.69140625,-80.078125,0.0
1690406175.9079814,-414.0625,-37.59765625,-39.0625,-115.72265625,0.0
1690406175.9118757,188.96484375,-25.390625,-34.66796875,12.20703125,0.0
1690406175.91577,475.09765625,-36.1328125,-25.87890625,105.95703125,0.0
1690406175.9196641,-233.88671875,-40.52734375,-25.87890625,-36.1328125,0.0
1690406175.9235585,-465.33203125,-30.2734375,-41.015625,-118.65234375,0.0
1690406175.9274528,1.953125,-23.92578125,-42.96875,-29.78515625,0.0
1690406175.9314897,534.1796875,-22.4609375,-26.85546875,112.79296875,0.0
1690406175.935384,-24.4140625,-34.1796875,-33.203125,5.859375,0.0
1690406175.9392781,-489.74609375,-36.1328125,-35.64453125,-122.55859375,0.0
1690406175.9431725,-194.3359375,-39.0625,-29.78515625,-75.68359375,0.0
1690406175.9470668,469.23828125,-33.203125,-33.69140625,77.63671875,0.0
1690406175.9509609,183.10546875,-32.2265625,-27.83203125,41.015625,0.0
1690406175.9548552,-465.33203125,-40.52734375,-25.390625,-108.88671875,0.0
1690406175.9587495,-367.1875,-57.12890625,-29.78515625,-118.1640625,0.0
1690406175.9626436,283.69140625,-50.78125,-37.59765625,33.69140625,0.0
1690406175.966538,344.7265625,-20.99609375,-38.57421875,80.56640625,0.0
1690406175.9704323,-368.1640625,-32.71484375,-29.296875,-82.51953125,0.0
1690406175.9743264,-455.078125,-43.45703125,-34.1796875,-129.8828125,0.0
1690406175.9783576,107.421875,-32.2265625,-39.0625,-11.71875,0.0
1690406175.982252,477.5390625,-28.80859375,-28.80859375,91.796875,0.0
1690406175.9861462,-198.2421875,-46.38671875,-32.2265625,-46.38671875,0.0
1690406175.9900405,-491.2109375,-48.828125,-38.0859375,-138.18359375,0.0
1690406175.9939346,-57.6171875,-46.38671875,-36.62109375,-56.15234375,0.0
1690406175.997829,522.94921875,-42.48046875,-37.109375,86.42578125,0.0
1690406176.0017233,24.4140625,-56.640625,-36.62109375,0.0,0.0
1690406176.0056176,-489.74609375,-75.1953125,-39.0625,-124.51171875,0.0
1690406176.0095117,-239.2578125,-54.19921875,-45.41015625,-90.33203125,0.0
1690406176.013406,424.8046875,-28.3203125,-50.78125,63.4765625,0.0
1690406176.0173004,238.76953125,-29.78515625,-37.109375,51.26953125,0.0
1690406176.0211947,-419.921875,-42.96875,-37.109375,-102.5390625,0.0
1690406176.0252178,-369.140625,-51.26953125,-46.875,-116.2109375,0.0
1690406176.0291119,257.8125,-42.48046875,-43.45703125,28.80859375,0.0
1690406176.0330062,412.59765625,-41.015625,-47.36328125,84.9609375,0.0
1690406176.0369005,-303.22265625,-43.45703125,-48.828125,-75.1953125,0.0
1690406176.0407948,-443.359375,-37.59765625,-40.52734375,-126.46484375,0.0
1690406176.0446892,94.23828125,-52.734375,-35.15625,-12.6953125,0.0
1690406176.0485833,522.94921875,-57.6171875,-37.59765625,106.4453125,0.0
1690406176.0524776,-115.72265625,-45.8984375,-39.0625,-19.53125,0.0
1690406176.056372,-466.796875,-31.25,-43.9453125,-124.51171875,0.0
1690406176.0602663,-93.75,-23.4375,-40.0390625,-56.640625,0.0
1690406176.0641606,530.2734375,-27.34375,-36.62109375,99.609375,0.0
1690406176.0680547,111.328125,-46.38671875,-35.64453125,28.3203125,0.0
1690406176.0720704,-464.35546875,-52.24609375,-36.1328125,-114.2578125,0.0
1690406176.0759647,-274.90234375,-43.9453125,-37.59765625,-91.30859375,0.0
1690406176.079859,395.01953125,-37.109375,-41.9921875,54.6875,0.0
1690406176.0837533,298.828125,-34.66796875,-41.9921875,69.82421875,0.0
1690406176.0876477,-396.484375,-37.109375,-38.57421875,-85.44921875,0.0
1690406176.0915418,-395.01953125,-54.6875,-40.52734375,-125.0,0.0
1690406176.095436,212.890625,-59.5703125,-40.52734375,13.671875,0.0
1690406176.0993304,449.70703125,-29.296875,-37.109375,97.65625,0.0
1690406176.1032248,-259.765625,-26.85546875,-33.69140625,-61.03515625,0.0
1690406176.107119,-461.9140625,-41.50390625,-24.90234375,-129.8828125,0.0
1690406176.1110134,40.0390625,-28.3203125,-19.04296875,-27.83203125,0.0
1690406176.1149075,546.38671875,-26.3671875,-47.8515625,97.16796875,0.0
1690406176.1189187,-51.7578125,-48.33984375,-54.6875,-23.92578125,0.0
1690406176.122813,-483.3984375,-47.8515625,-36.62109375,-142.578125,0.0
1690406176.1267073,-148.4375,-42.96875,-38.57421875,-77.1484375,0.0
1690406176.1306014,500.48828125,-32.71484375,-40.52734375,77.1484375,0.0
1690406176.1344957,160.64453125,-37.109375,-34.66796875,19.04296875,0.0
1690406176.13839,-453.125,-62.01171875,-35.64453125,-120.60546875,0.0
1690406176.1422844,-322.265625,-50.29296875,-43.9453125,-118.1640625,0.0
1690406176.1461787,338.37890625,-25.87890625,-43.45703125,23.4375,0.0
1690406176.150073,335.44921875,-44.921875,-43.45703125,50.78125,0.0
1690406176.1539674,-373.53515625,-57.12890625,-43.45703125,-118.65234375,0.0
1690406176.1578617,-421.38671875,-42.48046875,-51.26953125,-149.4140625,0.0
1690406176.1617558,166.015625,-20.99609375,-50.78125,-10.25390625,0.0
1690406176.1658115,484.86328125,-8.7890625,-43.9453125,93.26171875,0.0
1690406176.1697059,-207.51953125,-30.76171875,-43.9453125,-47.36328125,0.0
1690406176.1736002,-469.23828125,-45.8984375,-49.31640625,-135.25390625,0.0
1690406176.1774945,-18.5546875,-41.015625,-46.38671875,-49.8046875,0.0
1690406176.1813886,535.15625,-29.78515625,-45.41015625,93.75,0.0
1690406176.185283,-5.859375,-47.36328125,-45.41015625,-7.32421875,0.0
1690406176.1891773,-492.67578125,-53.22265625,-42.96875,-142.08984375,0.0
1690406176.1930716,-222.65625,-38.0859375,-49.31640625,-105.95703125,0.0
1690406176.196966,430.6640625,-36.1328125,-48.33984375,53.7109375,0.0
1690406176.2008603,183.10546875,-41.9921875,-42.48046875,36.62109375,0.0
1690406176.2047546,-464.35546875,-42.48046875,-45.41015625,-117.67578125,0.0
1690406176.208649,-386.71875,-44.43359375,-42.96875,-121.09375,0.0
1690406176.2126954,258.7890625,-45.8984375,-40.52734375,25.390625,0.0
1690406176.2165897,358.88671875,-41.50390625,-42.96875,77.1484375,0.0
1690406176.220484,-354.98046875,-43.9453125,-43.45703125,-81.0546875,0.0
1690406176.2243783,-452.63671875,-38.0859375,-42.48046875,-123.53515625,0.0
1690406176.2282727,107.91015625,-35.15625,-43.9453125,-0.48828125,0.0
1690406176.232167,500.9765625,-39.0625,-38.57421875,106.93359375,0.0
1690406176.2360613,-163.0859375,-46.875,-38.0859375,-34.66796875,0.0
1690406176.2399557,-486.81640625,-55.6640625,-45.41015625,-135.7421875,0.0
1690406176.24385,-75.68359375,-53.22265625,-43.9453125,-48.828125,0.0
1690406176.2477443,525.87890625,-38.0859375,-42.48046875,104.4921875,0.0
1690406176.2516387,62.98828125,-36.62109375,-52.24609375,5.37109375,0.0
1690406176.255533,-464.84375,-46.875,-58.10546875,-120.60546875,0.0
1690406176.2595732,-244.62890625,-43.9453125,-50.29296875,-88.37890625,0.0
1690406176.2634676,420.8984375,-35.64453125,-50.78125,66.40625,0.0
1690406176.2673619,268.06640625,-41.015625,-44.43359375,60.546875,0.0
1690406176.2712562,-413.57421875,-41.50390625,-32.71484375,-108.3984375,0.0
1690406176.2751505,-383.30078125,-42.48046875,-39.55078125,-124.0234375,0.0
1690406176.2790449,244.140625,-47.36328125,-47.36328125,18.5546875,0.0
1690406176.2829392,426.7578125,-32.71484375,-39.55078125,82.51953125,0.0
1690406176.2868335,-294.921875,-31.25,-41.50390625,-72.265625,0.0
1690406176.2907279,-455.078125,-42.48046875,-40.52734375,-129.39453125,0.0
1690406176.2946222,78.125,-34.66796875,-39.0625,-9.765625,0.0
1690406176.2985165,538.0859375,-22.94921875,-45.8984375,108.88671875,0.0
1690406176.3024108,-94.23828125,-36.1328125,-45.8984375,-18.5546875,0.0
1690406176.3064446,-476.07421875,-39.0625,-45.8984375,-125.9765625,0.0
1690406176.310339,-119.62890625,-28.80859375,-49.31640625,-66.89453125,0.0
1690406176.3142333,518.06640625,-16.6015625,-58.59375,93.26171875,0.0
1690406176.3181276,138.18359375,-35.64453125,-51.26953125,25.87890625,0.0
1690406176.322022,-449.70703125,-51.7578125,-38.57421875,-122.55859375,0.0
1690406176.3259163,-283.69140625,-31.25,-36.62109375,-102.5390625,0.0
1690406176.3298106,373.046875,-17.578125,-34.1796875,49.8046875,0.0
1690406176.333705,312.01171875,-34.66796875,-32.71484375,72.75390625,0.0
1690406176.3375995,-388.671875,-49.31640625,-36.62109375,-91.796875,0.0
1690406176.3414938,-410.64453125,-41.50390625,-43.9453125,-143.06640625,0.0
1690406176.3453882,190.4296875,-39.0625,-42.96875,-0.9765625,0.0
1690406176.3492825,456.0546875,-37.59765625,-36.1328125,84.47265625,0.0
1690406176.3533123,-255.859375,-49.31640625,-36.1328125,-78.125,0.0
1690406176.3572066,-474.12109375,-52.734375,-41.9921875,-140.13671875,0.0
1690406176.361101,4.8828125,-41.9921875,-45.41015625,-39.0625,0.0
1690406176.3649952,531.25,-38.0859375,-42.96875,98.14453125,0.0
1690406176.3688896,-37.109375,-48.828125,-47.8515625,-19.04296875,0.0
1690406176.3727841,-488.28125,-50.78125,-49.31640625,-136.71875,0.0
1690406176.3766785,-180.17578125,-40.52734375,-43.45703125,-81.0546875,0.0
1690406176.3805728,475.5859375,-43.9453125,-40.0390625,80.56640625,0.0
1690406176.3844671,171.875,-62.01171875,-40.0390625,34.1796875,0.0
1690406176.3883615,-455.56640625,-60.05859375,-40.0390625,-119.62890625,0.0
1690406176.3922558,-341.30859375,-38.57421875,-40.0390625,-116.69921875,0.0
1690406176.3961504,313.96484375,-24.4140625,-43.45703125,28.3203125,0.0
1690406176.400172,351.07421875,-28.3203125,-38.57421875,73.73046875,0.0
1690406176.4040663,-364.2578125,-40.52734375,-35.64453125,-88.37890625,0.0
1690406176.4079607,-442.3828125,-40.52734375,-29.78515625,-137.6953125,0.0
1690406176.4118552,133.30078125,-47.36328125,-39.55078125,-23.4375,0.0
1690406176.4157495,491.69921875,-48.828125,-52.24609375,84.9609375,0.0
1690406176.4196439,-194.82421875,-48.828125,-50.29296875,-52.24609375,0.0
1690406176.4235382,-488.76953125,-54.6875,-43.9453125,-141.6015625,0.0
1690406176.4274328,-26.3671875,-48.828125,-37.109375,-48.33984375,0.0
1690406176.431327,493.1640625,-28.80859375,-38.57421875,83.49609375,0.0
1690406176.4352214,-43.9453125,-34.1796875,-42.96875,-14.6484375,0.0
1690406176.4391158,-468.75,-49.8046875,-43.45703125,-132.32421875,0.0
1690406176.44301,-224.12109375,-42.48046875,-37.59765625,-98.14453125,0.0
1690406176.4470253,447.75390625,-24.90234375,-37.109375,66.89453125,0.0
1690406176.4509199,239.74609375,-24.90234375,-35.64453125,53.22265625,0.0
1690406176.4548142,-422.8515625,-44.921875,-35.15625,-95.703125,0.0
1690406176.4587085,-362.79296875,-57.12890625,-37.59765625,-104.00390625,0.0
1690406176.4626029,272.4609375,-42.96875,-39.0625,38.0859375,0.0
1690406176.4664974,394.04296875,-31.25,-45.8984375,90.33203125,0.0
1690406176.4703918,-331.54296875,-47.8515625,-39.55078125,-75.68359375,0.0
1690406176.474286,-457.03125,-46.38671875,-41.9921875,-127.44140625,0.0
1690406176.4781806,97.65625,-29.296875,-47.36328125,4.39453125,0.0
1690406176.482075,519.53125,-30.76171875,-34.1796875,121.09375,0.0
1690406176.4859693,-130.859375,-41.015625,-21.97265625,-16.6015625,0.0
1690406176.4898636,-473.14453125,-37.59765625,-22.94921875,-116.2109375,0.0
1690406176.493874,-82.03125,-37.59765625,-29.78515625,-45.41015625,0.0
1690406176.4977686,532.71484375,-33.203125,-31.25,111.328125,0.0
1690406176.501663,89.84375,-34.66796875,-27.34375,40.52734375,0.0
1690406176.5055573,-468.26171875,-48.828125,-31.73828125,-105.95703125,0.0
1690406176.5094519,-260.7421875,-40.52734375,-36.62109375,-82.51953125,0.0
1690406176.5133462,402.34375,-30.2734375,-33.69140625,76.66015625,0.0
1690406176.5172405,286.62109375,-35.64453125,-36.1328125,70.80078125,0.0
1690406176.521135,-389.16015625,-42.96875,-41.50390625,-97.16796875,0.0
1690406176.5250294,-385.7421875,-42.96875,-40.0390625,-115.72265625,0.0
1690406176.5289237,208.0078125,-42.48046875,-34.1796875,12.20703125,0.0
1690406176.532818,425.78125,-39.0625,-28.80859375,76.66015625,0.0
1690406176.5367126,-276.85546875,-38.0859375,-23.92578125,-68.84765625,0.0
1690406176.5407825,-468.26171875,-42.48046875,-22.94921875,-148.92578125,0.0
1690406176.5446768,36.62109375,-41.015625,-33.203125,-59.08203125,0.0
1690406176.548571,530.76171875,-37.59765625,-54.6875,92.7734375,0.0
1690406176.5524657,-86.42578125,-40.0390625,-43.45703125,-29.296875,0.0
1690406176.55636,-496.09375,-41.50390625,-26.85546875,-149.4140625,0.0
1690406176.5602546,-144.53125,-38.57421875,-36.1328125,-82.03125,0.0
1690406176.564149,502.9296875,-27.83203125,-45.8984375,74.70703125,0.0
1690406176.5680432,138.18359375,-36.1328125,-41.50390625,23.92578125,0.0
1690406176.5719378,-472.65625,-56.640625,-37.109375,-129.8828125,0.0
1690406176.5758321,-315.4296875,-50.78125,-40.0390625,-121.09375,0.0
1690406176.5797265,350.5859375,-24.90234375,-43.45703125,39.55078125,0.0
1690406176.583621,317.87109375,-20.5078125,-42.96875,65.91796875,0.0
1690406176.5876684,-380.37109375,-38.57421875,-32.71484375,-92.7734375,0.0
1690406176.5915627,-415.0390625,-38.0859375,-33.203125,-127.9296875,0.0
1690406176.5954573,183.59375,-38.0859375,-44.43359375,0.9765625,0.0
1690406176.5993516,485.83984375,-32.2265625,-47.8515625,98.14453125,0.0
1690406176.6032462,-226.5625,-29.78515625,-47.8515625,-45.41015625,0.0
1690406176.6071405,-469.23828125,-38.57421875,-47.8515625,-127.9296875,0.0
1690406176.611035,9.765625,-27.34375,-44.921875,-38.0859375,0.0
1690406176.6149294,554.6875,-20.5078125,-44.43359375,113.76953125,0.0
1690406176.6188238,0.9765625,-42.96875,-37.59765625,22.94921875,0.0
1690406176.6227183,-464.84375,-40.52734375,-41.015625,-102.05078125,0.0
1690406176.6266127,-169.43359375,-21.484375,-41.9921875,-63.96484375,0.0
1690406176.6305072,499.0234375,-19.53125,-44.921875,95.21484375,0.0
1690406176.6345468,220.703125,-21.97265625,-56.15234375,51.7578125,0.0
1690406176.6384413,-424.8046875,-33.203125,-48.33984375,-105.95703125,0.0
1690406176.6423357,-328.125,-37.109375,-41.9921875,-99.609375,0.0
1690406176.6462302,312.5,-31.25,-38.0859375,43.45703125,0.0
1690406176.6501245,379.8828125,-36.62109375,-31.25,86.42578125,0.0
1690406176.654019,-338.8671875,-36.62109375,-32.2265625,-78.125,0.0
1690406176.6579134,-438.4765625,-29.78515625,-38.57421875,-130.37109375,0.0
1690406176.661808,133.30078125,-31.25,-38.0859375,1.46484375,0.0
1690406176.6657023,506.8359375,-32.71484375,-36.62109375,118.65234375,0.0
1690406176.669597,-172.8515625,-39.0625,-38.57421875,-22.94921875,0.0
1690406176.6734912,-476.07421875,-37.109375,-39.55078125,-114.2578125,0.0
1690406176.6773858,-52.734375,-38.0859375,-42.96875,-36.1328125,0.0
1690406176.6814196,537.109375,-34.1796875,-47.36328125,112.3046875,0.0
1690406176.685314,47.8515625,-33.69140625,-40.52734375,20.99609375,0.0
1690406176.6892085,-469.23828125,-41.9921875,-35.15625,-120.60546875,0.0
1690406176.6931028,-232.421875,-43.9453125,-34.1796875,-84.47265625,0.0
1690406176.6969974,430.17578125,-36.62109375,-32.71484375,77.1484375,0.0
1690406176.7008917,246.58203125,-42.96875,-33.203125,52.24609375,0.0
1690406176.7047863,-427.734375,-51.26953125,-38.0859375,-117.1875,0.0
1690406176.7086809,-395.99609375,-65.91796875,-48.828125,-125.0,0.0
1690406176.7125752,235.83984375,-61.03515625,-48.828125,22.94921875,0.0
1690406176.7164698,401.85546875,-34.1796875,-44.43359375,83.984375,0.0
1690406176.720364,-319.3359375,-45.41015625,-35.64453125,-81.0546875,0.0
1690406176.7242587,-464.84375,-54.6875,-31.73828125,-134.27734375,0.0
1690406176.7282875,64.94140625,-47.8515625,-33.69140625,-22.4609375,0.0
1690406176.7321818,513.18359375,-46.38671875,-41.50390625,86.9140625,0.0
1690406176.7360764,-125.9765625,-53.7109375,-42.48046875,-36.1328125,0.0
1690406176.7399707,-496.58203125,-57.6171875,-37.109375,-132.32421875,0.0
1690406176.7438653,-118.65234375,-48.33984375,-36.1328125,-67.3828125,0.0
1690406176.7477598,509.765625,-32.71484375,-37.109375,87.890625,0.0
1690406176.7516541,99.609375,-35.64453125,-41.9921875,17.08984375,0.0
1690406176.7555487,-471.19140625,-44.43359375,-36.1328125,-125.48828125,0.0
1690406176.759443,-278.3203125,-39.0625,-36.62109375,-94.7265625,0.0
1690406176.7633376,400.87890625,-27.34375,-50.78125,71.2890625,0.0
1690406176.7672322,306.15234375,-28.80859375,-54.19921875,70.80078125,0.0
1690406176.7711265,-396.484375,-34.66796875,-33.69140625,-97.65625,0.0
1690406176.7751486,-388.671875,-32.2265625,-20.01953125,-112.3046875,0.0
1690406176.7790432,211.9140625,-33.203125,-32.71484375,20.5078125,0.0
1690406176.7829378,442.87109375,-39.0625,-38.57421875,97.16796875,0.0
1690406176.786832,-255.37109375,-37.109375,-35.15625,-54.6875,0.0
1690406176.7907267,-449.70703125,-35.64453125,-36.62109375,-128.41796875,0.0
1690406176.7946212,39.55078125,-38.0859375,-32.71484375,-33.203125,0.0
1690406176.7985156,536.1328125,-37.59765625,-39.0625,101.5625,0.0
1690406176.8024101,-55.6640625,-41.50390625,-39.0625,-20.5078125,0.0
1690406176.8063047,-472.16796875,-41.015625,-32.71484375,-139.16015625,0.0
1690406176.810199,-151.3671875,-40.52734375,-34.66796875,-68.84765625,0.0
1690406176.8140936,494.62890625,-27.83203125,-34.1796875,94.23828125,0.0
1690406176.817988,166.50390625,-24.4140625,-31.73828125,43.9453125,0.0
1690406176.8220057,-451.171875,-22.94921875,-29.78515625,-103.515625,0.0
1690406176.8259003,-326.171875,-30.2734375,-33.69140625,-99.609375,0.0
1690406176.829795,325.68359375,-35.64453125,-39.0625,37.59765625,0.0
1690406176.8336892,333.49609375,-28.3203125,-35.64453125,62.5,0.0
1690406176.8375838,-382.8125,-37.59765625,-32.71484375,-103.515625,0.0
1690406176.8414783,-437.98828125,-42.96875,-41.50390625,-141.11328125,0.0
1690406176.8453727,142.578125,-35.64453125,-50.29296875,-13.671875,0.0
1690406176.8492672,463.8671875,-39.55078125,-41.015625,80.56640625,0.0
1690406176.8531618,-223.14453125,-55.6640625,-34.66796875,-62.01171875,0.0
1690406176.8570561,-486.81640625,-50.78125,-36.1328125,-141.6015625,0.0
1690406176.8609507,-32.2265625,-48.33984375,-38.57421875,-52.24609375,0.0
1690406176.8648453,532.71484375,-34.66796875,-40.0390625,89.84375,0.0
1690406176.8688562,1.953125,-35.64453125,-38.57421875,-14.6484375,0.0
1690406176.8727505,-485.3515625,-49.31640625,-36.62109375,-140.625,0.0
1690406176.876645,-212.890625,-47.36328125,-36.62109375,-92.28515625,0.0
1690406176.8805397,454.58984375,-29.78515625,-40.0390625,57.6171875,0.0
1690406176.8844342,209.47265625,-28.80859375,-40.0390625,29.78515625,0.0
1690406176.8883286,-446.77734375,-44.921875,-34.66796875,-115.72265625,0.0
1690406176.8922231,-367.1875,-45.41015625,-37.109375,-122.0703125,0.0
1690406176.8961177,279.296875,-25.390625,-43.45703125,15.13671875,0.0
1690406176.900012,389.6484375,-21.97265625,-41.015625,62.98828125,0.0
1690406176.9039066,-325.68359375,-53.7109375,-43.45703125,-92.28515625,0.0
1690406176.9078012,-434.5703125,-53.22265625,-56.15234375,-137.6953125,0.0
1690406176.9116957,116.2109375,-28.3203125,-51.7578125,-19.04296875,0.0
1690406176.9157481,518.5546875,-21.484375,-48.33984375,93.26171875,0.0
1690406176.9196427,-139.6484375,-32.2265625,-49.8046875,-49.8046875,0.0
1690406176.9235373,-468.75,-34.1796875,-34.1796875,-144.53125,0.0
1690406176.9274316,-50.29296875,-31.25,-29.296875,-49.8046875,0.0
1690406176.9313262,504.39453125,-33.203125,-38.0859375,96.19140625,0.0
1690406176.9352207,28.80859375,-34.1796875,-36.1328125,10.25390625,0.0
1690406176.9391153,-464.84375,-39.0625,-29.296875,-121.09375,0.0
1690406176.9430099,-256.8359375,-43.45703125,-35.15625,-89.84375,0.0
1690406176.9469042,408.69140625,-32.71484375,-36.1328125,70.80078125,0.0
1690406176.9507987,254.39453125,-41.015625,-44.43359375,58.10546875,0.0
1690406176.9546933,-426.26953125,-51.26953125,-56.15234375,-104.4921875,0.0
1690406176.958588,-394.04296875,-29.78515625,-38.0859375,-108.3984375,0.0
1690406176.9626336,227.05078125,-19.53125,-33.69140625,37.59765625,0.0
1690406176.9665282,417.48046875,-32.2265625,-35.64453125,108.3984375,0.0
1690406176.9704227,-295.8984375,-32.2265625,-26.3671875,-49.8046875,0.0
1690406176.9743173,-464.84375,-28.80859375,-27.83203125,-118.65234375,0.0
1690406176.9782116,40.0390625,-41.9921875,-30.76171875,-12.20703125,0.0
1690406176.9821062,508.7890625,-37.109375,-37.59765625,112.3046875,0.0
1690406176.9860008,-103.515625,-37.59765625,-32.2265625,-7.32421875,0.0
1690406176.9898953,-488.76953125,-42.48046875,-25.87890625,-125.48828125,0.0
1690406176.99379,-124.0234375,-42.96875,-34.66796875,-60.546875,0.0
1690406176.9976845,502.9296875,-45.41015625,-37.109375,99.12109375,0.0
1690406177.001579,119.62890625,-46.875,-32.71484375,23.92578125,0.0
1690406177.0054734,-468.75,-37.59765625,-36.1328125,-115.234375,0.0
1690406177.009513,-314.453125,-32.2265625,-40.0390625,-95.703125,0.0
1690406177.0134075,340.8203125,-30.2734375,-40.52734375,46.875,0.0
1690406177.017302,299.8046875,-23.92578125,-47.36328125,59.5703125,0.0
1690406177.0211966,-393.5546875,-32.71484375,-49.31640625,-98.14453125,0.0
1690406177.0250912,-412.109375,-43.45703125,-44.43359375,-128.41796875,0.0
1690406177.0289857,183.10546875,-36.1328125,-41.9921875,2.44140625,0.0
1690406177.0328803,456.0546875,-22.4609375,-44.43359375,85.44921875,0.0
1690406177.0367749,-239.2578125,-44.43359375,-41.015625,-54.6875,0.0
1690406177.0406694,-466.30859375,-55.17578125,-40.0390625,-121.09375,0.0
1690406177.044564,24.90234375,-36.62109375,-43.45703125,-32.2265625,0.0
1690406177.0484583,551.26953125,-31.25,-45.8984375,96.6796875,0.0
1690406177.052353,-32.71484375,-35.64453125,-43.9453125,-13.671875,0.0
1690406177.0563862,-490.72265625,-40.52734375,-37.59765625,-129.39453125,0.0
1690406177.0602808,-180.17578125,-35.64453125,-29.78515625,-82.51953125,0.0
1690406177.0641754,484.86328125,-22.94921875,-24.90234375,83.0078125,0.0
1690406177.06807,194.82421875,-37.59765625,-28.3203125,61.03515625,0.0
1690406177.0719645,-438.96484375,-51.7578125,-38.57421875,-97.16796875,0.0
1690406177.075859,-330.078125,-44.43359375,-34.66796875,-103.515625,0.0
1690406177.0797536,314.453125,-34.1796875,-33.69140625,41.50390625,0.0
1690406177.0836482,350.09765625,-31.25,-30.2734375,81.54296875,0.0
1690406177.0875425,-362.3046875,-44.43359375,-28.80859375,-80.56640625,0.0
1690406177.091437,-435.546875,-48.33984375,-40.52734375,-135.7421875,0.0
1690406177.0953317,133.7890625,-39.55078125,-39.55078125,-12.6953125,0.0
1690406177.0992262,494.62890625,-27.34375,-43.9453125,92.7734375,0.0
1690406177.1032534,-178.7109375,-39.0625,-51.7578125,-51.26953125,0.0
1690406177.107148,-470.703125,-46.38671875,-23.4375,-137.6953125,0.0
1690406177.1110425,-40.52734375,-49.31640625,-19.04296875,-56.15234375,0.0
1690406177.114937,533.69140625,-47.8515625,-28.3203125,86.42578125,0.0
1690406177.1188316,30.76171875,-44.921875,-20.99609375,0.9765625,0.0
1690406177.1227262,-478.02734375,-52.24609375,-22.4609375,-119.140625,0.0
1690406177.1266208,-233.88671875,-52.734375,-16.11328125,-88.8671875,0.0
1690406177.1305153,427.734375,-43.45703125,-25.390625,76.66015625,0.0
1690406177.13441,238.28125,-49.8046875,-27.34375,67.87109375,0.0
1690406177.1383045,-422.36328125,-50.29296875,-14.6484375,-102.5390625,0.0
1690406177.142199,-373.046875,-42.48046875,-19.53125,-119.62890625,0.0
1690406177.1460936,259.27734375,-40.0390625,-27.83203125,20.99609375,0.0
1690406177.1501148,399.90234375,-28.80859375,-25.87890625,83.0078125,0.0
1690406177.1540093,-317.87109375,-38.0859375,-22.4609375,-76.66015625,0.0
1690406177.157904,-452.1484375,-47.8515625,-28.3203125,-127.44140625,0.0
1690406177.1617987,94.23828125,-44.43359375,-28.80859375,-7.32421875,0.0
1690406177.1656933,529.296875,-32.2265625,-34.1796875,111.328125,0.0
1690406177.1695879,-122.55859375,-39.55078125,-42.48046875,-20.01953125,0.0
1690406177.1734824,-480.46875,-52.734375,-38.57421875,-123.53515625,0.0
1690406177.177377,-89.84375,-52.734375,-35.64453125,-53.7109375,0.0
1690406177.1812716,528.3203125,-48.33984375,-35.15625,92.28515625,0.0
1690406177.1851661,95.703125,-50.78125,-35.15625,18.06640625,0.0
1690406177.1890607,-456.0546875,-41.50390625,-42.48046875,-121.58203125,0.0
1690406177.1929553,-267.08984375,-36.62109375,-45.41015625,-95.21484375,0.0
1690406177.19697,392.578125,-35.15625,-40.52734375,60.05859375,0.0
1690406177.2008646,283.69140625,-42.48046875,-34.66796875,59.08203125,0.0
1690406177.2047591,-410.64453125,-56.15234375,-43.9453125,-100.5859375,0.0
1690406177.2086537,-397.94921875,-42.96875,-45.8984375,-130.37109375,0.0
1690406177.2125485,215.8203125,-36.62109375,-46.875,2.44140625,0.0
1690406177.216443,430.17578125,-37.109375,-57.12890625,93.75,0.0
1690406177.2203376,-285.15625,-41.50390625,-48.828125,-50.78125,0.0
1690406177.2242322,-468.75,-39.0625,-41.50390625,-122.0703125,0.0
1690406177.2281268,38.57421875,-30.2734375,-50.29296875,-21.97265625,0.0
1690406177.2320213,530.2734375,-27.34375,-58.10546875,107.421875,0.0
1690406177.235916,-66.89453125,-35.15625,-56.640625,-13.18359375,0.0
1690406177.2398105,-479.00390625,-35.15625,-48.33984375,-136.23046875,0.0
1690406177.2438207,-150.87890625,-35.15625,-52.24609375,-86.9140625,0.0
1690406177.2477152,487.3046875,-34.1796875,-52.734375,75.1953125,0.0
1690406177.2516098,131.34765625,-34.66796875,-44.921875,24.90234375,0.0
1690406177.2555044,-478.02734375,-46.875,-45.41015625,-132.8125,0.0
1690406177.259399,-325.68359375,-41.015625,-37.109375,-122.0703125,0.0
1690406177.2632935,330.078125,-36.1328125,-34.1796875,32.71484375,0.0
1690406177.267188,308.59375,-44.921875,-29.78515625,66.40625,0.0
1690406177.2710829,-392.08984375,-55.17578125,-31.73828125,-93.75,0.0
1690406177.2749774,-431.15234375,-54.6875,-36.1328125,-132.32421875,0.0
1690406177.278872,161.1328125,-36.1328125,-38.0859375,-5.859375,0.0
1690406177.2827666,462.40234375,-23.92578125,-49.8046875,84.9609375,0.0
1690406177.2866611,-233.3984375,-29.296875,-37.59765625,-62.5,0.0
1690406177.2907116,-481.93359375,-39.55078125,-23.4375,-146.97265625,0.0
1690406177.2946062,-20.01953125,-40.0390625,-35.64453125,-51.26953125,0.0
1690406177.2985008,531.73828125,-31.25,-41.015625,91.30859375,0.0
1690406177.3023953,-9.27734375,-35.64453125,-32.2265625,-10.7421875,0.0
1690406177.3062901,-478.02734375,-48.828125,-35.64453125,-133.30078125,0.0
1690406177.3101847,-196.77734375,-59.08203125,-39.55078125,-89.35546875,0.0
1690406177.3140793,464.84375,-38.57421875,-38.0859375,69.3359375,0.0
1690406177.3179739,198.2421875,-36.62109375,-39.0625,37.109375,0.0
1690406177.3218687,-448.2421875,-60.546875,-33.203125,-117.67578125,0.0
1690406177.3257632,-359.375,-56.15234375,-36.62109375,-121.09375,0.0
1690406177.3296578,291.50390625,-31.73828125,-52.734375,28.3203125,0.0
1690406177.3335524,368.65234375,-33.203125,-59.08203125,72.75390625,0.0
1690406177.3375974,-347.16796875,-51.26953125,-61.03515625,-83.49609375,0.0
1690406177.341492,-441.40625,-47.36328125,-70.80078125,-132.32421875,0.0
1690406177.3453867,125.9765625,-35.15625,-79.58984375,-6.8359375,0.0
1690406177.3492813,520.01953125,-22.94921875,-73.2421875,107.91015625,0.0
1690406177.3531759,-155.76171875,-32.2265625,-71.2890625,-34.1796875,0.0
1690406177.3570704,-464.35546875,-44.921875,-74.21875,-124.51171875,0.0
1690406177.3609653,-43.9453125,-38.0859375,-74.21875,-42.48046875,0.0
1690406177.3648598,537.109375,-28.3203125,-65.4296875,105.95703125,0.0
1690406177.3687544,47.8515625,-48.33984375,-63.96484375,11.71875,0.0
1690406177.372649,-475.5859375,-52.734375,-66.89453125,-113.76953125,0.0
1690406177.3765438,-235.3515625,-34.1796875,-63.96484375,-67.3828125,0.0
1690406177.3804383,428.7109375,-30.76171875,-66.89453125,79.58984375,0.0
1690406177.3844771,252.44140625,-37.109375,-75.1953125,55.17578125,0.0
1690406177.3883717,-420.41015625,-45.41015625,-77.63671875,-99.609375,0.0
1690406177.3922663,-378.41796875,-40.0390625,-76.66015625,-107.91015625,0.0
1690406177.396161,249.51171875,-30.2734375,-92.28515625,28.80859375,0.0
1690406177.4000556,410.15625,-35.15625,-87.40234375,85.44921875,0.0
1690406177.4039502,-301.26953125,-45.41015625,-67.87109375,-72.265625,0.0
1690406177.407845,-445.3125,-55.6640625,-59.5703125,-129.39453125,0.0
1690406177.4117396,74.21875,-52.734375,-54.6875,-19.53125,0.0
1690406177.4156342,518.5546875,-41.015625,-55.17578125,105.95703125,0.0
1690406177.419529,-111.328125,-38.57421875,-53.22265625,-25.390625,0.0
1690406177.4234235,-480.46875,-40.0390625,-59.08203125,-138.18359375,0.0
1690406177.427318,-108.88671875,-42.48046875,-60.05859375,-61.03515625,0.0
1690406177.4313512,523.92578125,-34.66796875,-61.5234375,107.421875,0.0
1690406177.4352458,116.2109375,-37.59765625,-62.98828125,30.76171875,0.0
1690406177.4391406,-486.328125,-46.38671875,-58.59375,-124.0234375,0.0
1690406177.4430351,-267.08984375,-51.7578125,-66.40625,-93.26171875,0.0
1690406177.44693,297.8515625,-47.36328125,-62.98828125,40.0390625,0.0
1690406177.4508245,154.78515625,-49.8046875,-51.26953125,26.85546875,0.0
1690406177.454719,-395.01953125,-56.15234375,-50.29296875,-94.7265625,0.0
1690406177.4586139,-412.59765625,-65.4296875,-44.921875,-115.72265625,0.0
1690406177.4625084,208.49609375,-45.41015625,-43.45703125,21.97265625,0.0
1690406177.466403,442.87109375,-17.08984375,-48.828125,88.8671875,0.0
1690406177.4702978,-282.2265625,-24.90234375,-49.31640625,-62.98828125,0.0
1690406177.4741924,-461.42578125,-38.57421875,-46.38671875,-117.67578125,0.0
1690406177.478218,24.90234375,-33.69140625,-44.921875,-19.04296875,0.0
1690406177.4821126,549.8046875,-20.99609375,-50.29296875,118.65234375,0.0
1690406177.4860075,-36.62109375,-34.66796875,-54.6875,-1.46484375,0.0
1690406177.489902,-474.609375,-40.52734375,-45.8984375,-129.39453125,0.0
1690406177.4937968,-151.3671875,-34.1796875,-36.1328125,-75.1953125,0.0
1690406177.4976914,507.8125,-25.87890625,-36.1328125,83.984375,0.0
1690406177.501586,179.19921875,-25.87890625,-37.59765625,36.1328125,0.0
1690406177.5054808,-446.77734375,-42.48046875,-37.59765625,-115.72265625,0.0
1690406177.5093753,-310.05859375,-31.73828125,-51.26953125,-115.234375,0.0
1690406177.5132701,350.5859375,0.0,-55.17578125,33.69140625,0.0
1690406177.5171647,366.2109375,-3.90625,-45.8984375,70.3125,0.0
1690406177.5210595,-354.4921875,-21.97265625,-50.29296875,-87.890625,0.0
1690406177.5250785,-428.22265625,-22.94921875,-53.7109375,-135.7421875,0.0
1690406177.5289733,148.4375,-22.94921875,-54.19921875,-19.53125,0.0
1690406177.532868,484.375,-27.83203125,-52.24609375,78.125,0.0
1690406177.5367627,-208.0078125,-38.0859375,-45.8984375,-65.4296875,0.0
1690406177.5406573,-478.515625,-48.828125,-47.36328125,-146.484375,0.0
1690406177.544552,-18.06640625,-42.48046875,-50.29296875,-55.6640625,0.0
1690406177.5484467,537.59765625,-27.34375,-53.22265625,85.9375,0.0
1690406177.5523415,0.48828125,-44.43359375,-57.12890625,-19.53125,0.0
1690406177.556236,-481.4453125,-37.59765625,-62.5,-159.66796875,0.0
1690406177.5601308,-214.35546875,-23.92578125,-62.98828125,-109.86328125,0.0
1690406177.5640254,437.98828125,-23.92578125,-53.7109375,50.78125,0.0
1690406177.5679202,200.1953125,-27.34375,-56.640625,19.04296875,0.0
1690406177.5719337,-457.03125,-45.41015625,-64.94140625,-142.578125,0.0
1690406177.5758286,-385.7421875,-57.6171875,-47.8515625,-159.66796875,0.0
1690406177.5797231,246.09375,-52.734375,-39.55078125,-9.765625,0.0
1690406177.583618,362.3046875,-51.26953125,-39.0625,54.19921875,0.0
1690406177.5875125,-357.421875,-62.98828125,-38.57421875,-101.07421875,0.0
1690406177.5914073,-483.3984375,-55.6640625,-41.9921875,-149.90234375,0.0
1690406177.5953019,62.5,-50.78125,-46.38671875,-34.66796875,0.0
1690406177.5991967,480.46875,-44.43359375,-52.734375,77.1484375,0.0
1690406177.6030915,-166.015625,-37.109375,-45.8984375,-54.6875,0.0
1690406177.606986,-512.20703125,-51.26953125,-46.38671875,-154.78515625,0.0
1690406177.6108809,-108.3984375,-50.78125,-47.8515625,-80.56640625,0.0
1690406177.6147754,515.625,-43.9453125,-43.45703125,73.2421875,0.0
1690406177.6187887,62.98828125,-46.38671875,-42.48046875,-0.48828125,0.0
1690406177.6226833,-486.81640625,-47.8515625,-36.1328125,-131.34765625,0.0
1690406177.626578,-271.484375,-51.7578125,-36.1328125,-107.91015625,0.0
1690406177.6304727,404.78515625,-44.43359375,-37.109375,50.29296875,0.0
1690406177.6343675,277.34375,-57.6171875,-36.1328125,51.26953125,0.0
1690406177.638262,-410.15625,-65.4296875,-40.0390625,-107.91015625,0.0
1690406177.6421568,-389.16015625,-38.0859375,-42.48046875,-127.44140625,0.0
1690406177.6460516,229.4921875,-24.90234375,-49.31640625,2.9296875,0.0
1690406177.6499462,425.29296875,-32.71484375,-59.08203125,72.265625,0.0
1690406177.653841,-284.66796875,-42.48046875,-53.22265625,-77.63671875,0.0
1690406177.6577356,-457.51953125,-43.9453125,-39.55078125,-138.18359375,0.0
1690406177.6616304,53.22265625,-28.80859375,-39.0625,-24.4140625,0.0
1690406177.6656804,540.0390625,-26.3671875,-42.96875,110.3515625,0.0
1690406177.669575,-80.56640625,-34.66796875,-34.66796875,-15.13671875,0.0
1690406177.6734698,-481.4453125,-36.62109375,-34.1796875,-128.90625,0.0
1690406177.6773646,-122.55859375,-32.71484375,-34.66796875,-65.91796875,0.0
1690406177.6812592,511.71875,-31.25,-32.71484375,86.9140625,0.0
1690406177.685154,138.671875,-50.78125,-33.203125,26.3671875,0.0
1690406177.6890488,-455.078125,-44.921875,-38.0859375,-122.0703125,0.0
1690406177.6929433,-297.8515625,-25.390625,-40.0390625,-108.88671875,0.0
1690406177.6968381,364.74609375,-19.53125,-32.71484375,45.8984375,0.0
1690406177.7007327,320.3125,-30.2734375,-35.15625,67.3828125,0.0
1690406177.7046275,-385.7421875,-34.66796875,-43.45703125,-100.09765625,0.0
1690406177.7085223,-416.015625,-29.78515625,-43.9453125,-139.16015625,0.0
1690406177.7125697,178.7109375,-31.73828125,-40.0390625,-6.34765625,0.0
1690406177.7164645,451.66015625,-27.83203125,-39.55078125,82.51953125,0.0
1690406177.7203593,-251.953125,-33.69140625,-40.52734375,-72.75390625,0.0
1690406177.724254,-470.703125,-31.73828125,-41.50390625,-151.85546875,0.0
1690406177.7281487,7.32421875,-37.109375,-45.41015625,-51.26953125,0.0
1690406177.7320435,534.1796875,-52.734375,-44.43359375,86.42578125,0.0
1690406177.735938,-31.73828125,-50.78125,-44.921875,-27.34375,0.0
1690406177.7398329,-494.62890625,-41.50390625,-41.015625,-154.296875,0.0
1690406177.7437277,-196.77734375,-46.875,-33.69140625,-90.8203125,0.0
1690406177.7476223,467.28515625,-44.43359375,-41.9921875,69.82421875,0.0
1690406177.751517,182.6171875,-30.2734375,-49.31640625,19.53125,0.0
1690406177.7554119,-451.171875,-43.45703125,-45.8984375,-129.8828125,0.0
1690406177.7594512,-340.33203125,-49.31640625,-43.45703125,-129.8828125,0.0
1690406177.763346,296.875,-42.48046875,-49.8046875,15.625,0.0
1690406177.7672405,367.1875,-42.48046875,-44.43359375,71.2890625,0.0
1690406177.7711353,-369.140625,-46.38671875,-27.83203125,-86.42578125,0.0
1690406177.7750301,-372.55859375,-51.7578125,-32.71484375,-118.65234375,0.0
1690406177.778925,238.28125,-48.33984375,-41.50390625,8.30078125,0.0
1690406177.7828195,469.7265625,-41.9921875,-35.64453125,84.47265625,0.0
1690406177.7867143,-195.80078125,-49.31640625,-26.3671875,-47.36328125,0.0
1690406177.7906091,-477.05078125,-66.89453125,-23.4375,-129.39453125,0.0
1690406177.794504,-49.8046875,-55.17578125,-24.90234375,-56.15234375,0.0
1690406177.7983985,531.25,-32.2265625,-31.25,92.28515625,0.0
1690406177.8022933,37.59765625,-39.0625,-44.921875,6.34765625,0.0
1690406177.8063273,-485.3515625,-46.38671875,-42.96875,-125.0,0.0
1690406177.8102221,-240.72265625,-42.48046875,-32.2265625,-87.890625,0.0
1690406177.8141167,431.15234375,-33.69140625,-30.2734375,69.3359375,0.0
1690406177.8180115,235.83984375,-38.0859375,-30.2734375,51.7578125,0.0
1690406177.8219063,-431.15234375,-45.41015625,-27.34375,-100.5859375,0.0
1690406177.8258011,-370.1171875,-45.41015625,-28.3203125,-109.86328125,0.0
1690406177.829696,258.30078125,-44.921875,-35.15625,23.92578125,0.0
1690406177.8335905,398.92578125,-48.828125,-32.71484375,85.44921875,0.0
1690406177.8374853,-310.05859375,-42.48046875,-39.0625,-67.3828125,0.0
1690406177.8413801,-443.359375,-32.71484375,-43.9453125,-129.8828125,0.0
1690406177.845275,85.44921875,-29.78515625,-40.52734375,-17.578125,0.0
1690406177.8491697,521.97265625,-27.83203125,-38.57421875,113.76953125,0.0
1690406177.853195,-120.60546875,-34.66796875,-39.55078125,-20.01953125,0.0
1690406177.8570898,-474.12109375,-29.296875,-38.57421875,-125.0,0.0
1690406177.8609846,-84.47265625,-27.34375,-47.8515625,-52.24609375,0.0
1690406177.8648794,531.73828125,-27.34375,-49.31640625,94.23828125,0.0
1690406177.8687742,123.046875,-32.2265625,-30.2734375,20.5078125,0.0
1690406177.872669,-446.2890625,-38.57421875,-28.3203125,-118.1640625,0.0
1690406177.8765635,-279.78515625,-37.59765625,-28.80859375,-94.23828125,0.0
1690406177.8804584,381.8359375,-37.59765625,-31.25,61.5234375,0.0
1690406177.8843532,296.38671875,-29.78515625,-35.64453125,61.5234375,0.0
1690406177.888248,-387.6953125,-22.94921875,-37.59765625,-96.19140625,0.0
1690406177.8921428,-395.5078125,-30.2734375,-44.43359375,-117.67578125,0.0
1690406177.8960376,204.58984375,-43.45703125,-41.9921875,18.06640625,0.0
1690406177.9000566,441.89453125,-40.52734375,-36.1328125,95.703125,0.0
1690406177.9039514,-258.7890625,-33.69140625,-35.15625,-56.15234375,0.0
1690406177.9078462,-456.0546875,-36.62109375,-32.2265625,-122.0703125,0.0
1690406177.911741,41.015625,-28.80859375,-32.2265625,-20.99609375,0.0
1690406177.9156356,541.50390625,-26.3671875,-31.25,100.09765625,0.0
1690406177.9195304,-59.08203125,-40.52734375,-29.296875,-20.01953125,0.0
1690406177.9234252,-488.28125,-48.828125,-31.25,-130.37109375,0.0
1690406177.92732,-153.80859375,-40.52734375,-33.203125,-72.265625,0.0
1690406177.9312148,499.0234375,-24.4140625,-36.1328125,86.9140625,0.0
1690406177.9351096,167.96875,-35.15625,-30.2734375,35.15625,0.0
1690406177.9390044,-446.77734375,-44.43359375,-28.3203125,-115.234375,0.0
1690406177.9428992,-318.359375,-41.50390625,-36.1328125,-115.234375,0.0
1690406177.946912,332.03125,-38.57421875,-36.1328125,38.0859375,0.0
1690406177.9508069,333.0078125,-39.55078125,-42.96875,68.84765625,0.0
1690406177.9547017,-369.140625,-57.12890625,-50.78125,-92.7734375,0.0
1690406177.9585965,-427.734375,-58.59375,-44.43359375,-129.39453125,0.0
1690406177.9624913,151.85546875,-40.0390625,-46.38671875,-6.8359375,0.0
1690406177.966386,469.7265625,-38.57421875,-46.875,82.03125,0.0
1690406177.970281,-228.515625,-42.96875,-39.0625,-60.05859375,0.0
1690406177.9741757,-479.00390625,-33.69140625,-39.55078125,-135.7421875,0.0
1690406177.9780705,-20.99609375,-22.4609375,-40.52734375,-47.8515625,0.0
1690406177.9819653,518.06640625,-27.34375,-36.1328125,91.796875,0.0
1690406177.98586,-22.4609375,-35.15625,-36.1328125,-16.6015625,0.0
1690406177.989755,-505.859375,-41.015625,-39.0625,-149.90234375,0.0
1690406177.9937632,-219.23828125,-40.0390625,-36.62109375,-92.7734375,0.0
1690406177.997658,453.61328125,-28.80859375,-39.55078125,66.40625,0.0
1690406178.0015528,202.63671875,-31.73828125,-36.62109375,35.64453125,0.0
1690406178.0054476,-447.265625,-43.45703125,-35.64453125,-122.55859375,0.0
1690406178.0093424,-356.4453125,-44.43359375,-36.62109375,-130.37109375,0.0
1690406178.0132372,292.48046875,-25.390625,-29.78515625,24.90234375,0.0
1690406178.017132,376.953125,-22.4609375,-30.76171875,72.265625,0.0
1690406178.0210268,-340.33203125,-29.78515625,-37.59765625,-88.37890625,0.0
1690406178.0249217,-436.03515625,-24.90234375,-33.69140625,-125.48828125,0.0
1690406178.0288165,115.234375,-22.94921875,-35.64453125,-4.8828125,0.0
1690406178.0327113,505.37109375,-26.3671875,-46.38671875,97.16796875,0.0
1690406178.036606,-145.5078125,-34.1796875,-35.64453125,-37.59765625,0.0
1690406178.040655,-466.30859375,-34.1796875,-30.76171875,-130.859375,0.0
1690406178.0445497,-66.40625,-33.69140625,-36.1328125,-44.43359375,0.0
1690406178.0484445,536.62109375,-38.0859375,-34.66796875,110.83984375,0.0
1690406178.0523393,71.77734375,-34.66796875,-38.0859375,23.92578125,0.0
1690406178.0562341,-461.9140625,-37.109375,-36.1328125,-105.95703125,0.0
1690406178.060129,-236.328125,-38.0859375,-33.203125,-64.453125,0.0
1690406178.064024,421.875,-21.97265625,-35.15625,90.8203125,0.0
1690406178.0679188,272.4609375,-24.4140625,-34.66796875,76.66015625,0.0
1690406178.0718136,-403.3203125,-43.9453125,-34.66796875,-86.9140625,0.0
1690406178.0757084,-374.51171875,-49.31640625,-36.62109375,-116.2109375,0.0
1690406178.0796032,259.27734375,-29.78515625,-33.203125,21.484375,0.0
1690406178.083498,443.84765625,-26.3671875,-32.2265625,94.23828125,0.0
1690406178.0875401,-276.3671875,-43.45703125,-33.203125,-61.03515625,0.0
1690406178.091435,-437.01171875,-43.9453125,-34.66796875,-127.9296875,0.0
1690406178.0953298,76.171875,-27.83203125,-33.203125,-23.92578125,0.0
1690406178.0992248,539.0625,-24.90234375,-28.80859375,106.4453125,0.0
1690406178.1031196,-83.0078125,-41.015625,-22.4609375,-19.53125,0.0
1690406178.1070144,-452.63671875,-48.33984375,-21.484375,-123.53515625,0.0
1690406178.1109092,-92.28515625,-45.8984375,-24.4140625,-62.5,0.0
1690406178.114804,510.7421875,-34.66796875,-26.85546875,84.9609375,0.0
1690406178.1186988,122.0703125,-34.66796875,-35.64453125,31.25,0.0
1690406178.1225936,-470.703125,-40.0390625,-34.66796875,-112.79296875,0.0
1690406178.1264884,-301.26953125,-32.71484375,-30.76171875,-104.98046875,0.0
1690406178.1303833,364.2578125,-30.2734375,-41.015625,47.36328125,0.0
1690406178.1344194,302.734375,-26.85546875,-40.52734375,65.91796875,0.0
1690406178.1383142,-395.5078125,-21.484375,-29.296875,-96.19140625,0.0
1690406178.1422093,-407.2265625,-27.34375,-22.94921875,-126.46484375,0.0
1690406178.146104,184.5703125,-35.15625,-30.2734375,6.34765625,0.0
1690406178.149999,447.75390625,-28.80859375,-27.83203125,87.890625,0.0
1690406178.1538937,-249.0234375,-43.9453125,-26.85546875,-70.80078125,0.0
1690406178.1577885,-470.21484375,-58.10546875,-34.1796875,-142.578125,0.0
1690406178.1616833,6.34765625,-56.15234375,-39.0625,-44.921875,0.0
1690406178.1655781,528.3203125,-43.9453125,-39.0625,91.796875,0.0
1690406178.1694732,-39.0625,-30.76171875,-32.71484375,-18.06640625,0.0
1690406178.173368,-481.93359375,-31.73828125,-37.59765625,-132.8125,0.0
1690406178.1772628,-170.41015625,-38.57421875,-44.921875,-75.1953125,0.0
1690406178.1812928,480.95703125,-27.34375,-43.45703125,83.49609375,0.0
1690406178.1851876,179.6875,-20.99609375,-41.50390625,37.59765625,0.0
1690406178.1890824,-445.80078125,-34.66796875,-39.0625,-118.65234375,0.0
1690406178.1929772,-342.7734375,-43.45703125,-33.203125,-118.65234375,0.0
1690406178.1968722,303.7109375,-33.203125,-35.64453125,32.71484375,0.0
1690406178.200767,336.9140625,-31.25,-40.0390625,69.82421875,0.0
1690406178.2046618,-371.09375,-47.36328125,-40.0390625,-88.37890625,0.0
1690406178.2085567,-437.98828125,-55.17578125,-37.59765625,-132.8125,0.0
1690406178.2124515,139.6484375,-40.52734375,-36.62109375,-5.37109375,0.0
1690406178.2163465,498.046875,-26.3671875,-38.0859375,109.375,0.0
1690406178.2202413,-185.05859375,-35.15625,-38.0859375,-36.1328125,0.0
1690406178.224136,-464.35546875,-41.9921875,-38.0859375,-135.25390625,0.0
1690406178.2281651,-16.11328125,-29.296875,-40.52734375,-44.43359375,0.0
1690406178.23206,549.8046875,-9.27734375,-37.59765625,108.88671875,0.0
1690406178.2359548,47.36328125,-23.4375,-28.80859375,20.5078125,0.0
1690406178.2398496,-454.58984375,-41.015625,-27.83203125,-112.79296875,0.0
1690406178.2437446,-182.12890625,-38.0859375,-27.83203125,-74.21875,0.0
1690406178.2476394,482.91015625,-22.94921875,-34.66796875,85.44921875,0.0
1690406178.2515342,233.88671875,-22.4609375,-43.9453125,51.26953125,0.0
1690406178.255429,-423.828125,-38.57421875,-34.1796875,-99.12109375,0.0
1690406178.259324,-364.74609375,-33.69140625,-28.3203125,-114.2578125,0.0
1690406178.2632189,272.4609375,-28.80859375,-27.83203125,14.6484375,0.0
1690406178.2671137,408.69140625,-32.2265625,-24.4140625,74.21875,0.0
1690406178.2710085,-307.6171875,-39.55078125,-24.4140625,-87.40234375,0.0
1690406178.2750266,-436.5234375,-52.24609375,-31.25,-139.6484375,0.0
1690406178.2789214,99.609375,-41.50390625,-35.64453125,-20.99609375,0.0
1690406178.2828164,512.6953125,-32.2265625,-34.1796875,79.58984375,0.0
1690406178.2867112,-135.7421875,-36.62109375,-29.296875,-47.8515625,0.0
1690406178.290606,-481.93359375,-34.66796875,-26.85546875,-142.08984375,0.0
1690406178.2945008,-90.8203125,-33.203125,-32.2265625,-81.0546875,0.0
1690406178.2983959,515.625,-33.203125,-32.2265625,76.66015625,0.0
1690406178.3022907,78.125,-41.50390625,-27.83203125,15.625,0.0
1690406178.3061855,-472.16796875,-41.9921875,-28.80859375,-130.37109375,0.0
1690406178.3100805,-276.85546875,-42.48046875,-37.109375,-120.1171875,0.0
1690406178.3139753,385.25390625,-45.8984375,-36.1328125,35.15625,0.0
1690406178.3178701,265.13671875,-50.78125,-30.2734375,41.9921875,0.0
1690406178.3218822,-425.29296875,-58.59375,-35.15625,-120.60546875,0.0
1690406178.325777,-394.04296875,-50.78125,-36.1328125,-137.20703125,0.0
1690406178.329672,189.94140625,-31.73828125,-37.59765625,0.9765625,0.0
1690406178.333567,384.27734375,-29.78515625,-37.109375,74.70703125,0.0
1690406178.3374617,-284.66796875,-36.62109375,-33.203125,-78.61328125,0.0
1690406178.3413565,-468.26171875,-40.0390625,-35.64453125,-145.99609375,0.0
1690406178.3452516,31.73828125,-41.50390625,-35.64453125,-35.15625,0.0
