time,TP9,AF7,AF8,TP10,Right AUX
1687381494.552707,-103.02734375,-33.203125,-75.1953125,-31.25,0.0
1687381494.5566118,46.38671875,-37.59765625,-68.84765625,-9.27734375,0.0
1687381494.5605164,102.5390625,-34.66796875,-65.4296875,1.953125,0.0
1687381494.5644212,-83.49609375,-37.109375,-73.73046875,-8.30078125,0.0
1687381494.568326,-122.0703125,-41.50390625,-73.73046875,-9.27734375,0.0
1687381494.5722306,0.9765625,-41.9921875,-65.4296875,-9.27734375,0.0
1687381494.5761354,112.79296875,-41.50390625,-64.94140625,-7.8125,0.0
1687381494.5800402,-33.203125,-39.0625,-72.265625,-29.78515625,0.0
1687381494.5839448,-136.23046875,-47.8515625,-70.3125,-34.1796875,0.0
1687381494.5878496,-45.8984375,-47.8515625,-61.5234375,-5.37109375,0.0
1687381494.5917544,104.98046875,-38.57421875,-67.3828125,-5.859375,0.0
1687381494.595659,24.4140625,-36.62109375,-62.01171875,-20.01953125,0.0
1687381494.59962,-137.20703125,-36.62109375,-72.265625,-43.45703125,0.0
1687381494.6035247,-94.7265625,-36.62109375,-86.42578125,-46.875,0.0
1687381494.6074295,52.24609375,-42.96875,-76.171875,-16.11328125,0.0
1687381494.6113343,51.7578125,-47.8515625,-71.77734375,1.46484375,0.0
1687381494.615239,-125.9765625,-43.45703125,-69.82421875,-34.1796875,0.0
1687381494.6191437,-118.1640625,-35.15625,-64.453125,-53.7109375,0.0
1687381494.6230485,23.92578125,-25.87890625,-61.03515625,-26.85546875,0.0
1687381494.6269531,102.5390625,-23.4375,-56.15234375,-10.7421875,0.0
1687381494.630858,-67.87109375,-29.78515625,-56.15234375,-36.62109375,0.0
1687381494.6347628,-121.58203125,-28.3203125,-56.15234375,-26.3671875,0.0
1687381494.6386673,-0.9765625,-27.83203125,-64.94140625,-7.8125,0.0
1687381494.6425722,119.140625,-34.66796875,-71.77734375,6.34765625,0.0
1687381494.6465254,-22.4609375,-40.0390625,-71.2890625,-10.7421875,0.0
1687381494.6504302,-144.04296875,-40.52734375,-69.82421875,-37.109375,0.0
1687381494.654335,-62.5,-33.203125,-62.5,-15.13671875,0.0
1687381494.6582396,91.30859375,-31.25,-53.22265625,4.39453125,0.0
1687381494.6621444,19.04296875,-34.66796875,-65.91796875,-21.97265625,0.0
1687381494.6660492,-148.92578125,-31.25,-67.87109375,-44.921875,0.0
1687381494.669954,-100.5859375,-36.1328125,-51.7578125,-45.8984375,0.0
1687381494.6738586,49.8046875,-44.921875,-53.22265625,-25.87890625,0.0
1687381494.6777635,75.68359375,-37.59765625,-48.33984375,-6.34765625,0.0
1687381494.6816683,-104.4921875,-38.57421875,-47.8515625,-24.4140625,0.0
1687381494.6855729,-110.83984375,-45.8984375,-57.6171875,-20.5078125,0.0
1687381494.6894777,20.01953125,-48.33984375,-55.6640625,-18.06640625,0.0
1687381494.6934257,101.5625,-46.875,-49.8046875,-13.18359375,0.0
1687381494.6973305,-57.12890625,-43.45703125,-54.6875,-27.34375,0.0
1687381494.7012353,-133.7890625,-40.0390625,-56.15234375,-41.9921875,0.0
1687381494.7051399,-31.73828125,-37.109375,-51.7578125,-31.73828125,0.0
1687381494.7090447,110.83984375,-37.59765625,-50.78125,-8.30078125,0.0
1687381494.7129495,-0.48828125,-34.1796875,-46.875,-14.6484375,0.0
1687381494.716854,-138.18359375,-34.1796875,-38.0859375,-30.2734375,0.0
1687381494.720759,-73.2421875,-34.1796875,-43.9453125,-32.2265625,0.0
1687381494.7246637,81.0546875,-30.76171875,-60.05859375,-30.2734375,0.0
1687381494.7285683,47.36328125,-35.64453125,-59.5703125,-30.2734375,0.0
1687381494.7324731,-129.39453125,-41.50390625,-51.7578125,-51.26953125,0.0
1687381494.736378,-101.5625,-36.62109375,-42.48046875,-47.36328125,0.0
1687381494.74032,42.96875,-27.83203125,-36.1328125,-30.2734375,0.0
1687381494.7442248,84.9609375,-30.76171875,-35.64453125,-20.5078125,0.0
1687381494.7481296,-88.37890625,-32.2265625,-33.69140625,-24.4140625,0.0
1687381494.7520342,-111.328125,-35.15625,-36.62109375,-19.53125,0.0
1687381494.755939,9.27734375,-38.57421875,-32.71484375,-23.92578125,0.0
1687381494.7598438,112.79296875,-36.1328125,-29.78515625,-27.83203125,0.0
1687381494.7637484,-38.57421875,-37.59765625,-42.96875,-26.85546875,0.0
1687381494.7676532,-138.18359375,-32.2265625,-42.48046875,-25.390625,0.0
1687381494.771558,-43.9453125,-31.25,-39.55078125,-37.59765625,0.0
1687381494.7754626,102.5390625,-33.203125,-47.36328125,-26.3671875,0.0
1687381494.7793674,7.8125,-35.15625,-46.38671875,-20.01953125,0.0
1687381494.7832723,-141.6015625,-44.43359375,-43.45703125,-37.109375,0.0
1687381494.7872083,-82.51953125,-42.96875,-44.43359375,-38.0859375,0.0
1687381494.791113,70.3125,-45.8984375,-46.38671875,-23.4375,0.0
1687381494.7950177,58.10546875,-47.36328125,-52.24609375,-20.99609375,0.0
1687381494.7989225,-122.55859375,-35.15625,-56.15234375,-38.0859375,0.0
1687381494.8028274,-108.3984375,-35.64453125,-49.31640625,-24.90234375,0.0
1687381494.806732,36.62109375,-35.64453125,-36.1328125,-9.765625,0.0
1687381494.8106368,104.00390625,-33.203125,-36.62109375,-6.8359375,0.0
1687381494.8145416,-75.68359375,-38.0859375,-39.0625,-25.390625,0.0
1687381494.8184462,-123.53515625,-42.96875,-40.52734375,-39.55078125,0.0
1687381494.822351,-0.9765625,-44.921875,-41.9921875,-32.2265625,0.0
1687381494.8262558,119.62890625,-44.921875,-41.50390625,-10.25390625,0.0
1687381494.8301604,-19.04296875,-41.9921875,-46.875,-13.18359375,0.0
1687381494.8340924,-136.71875,-38.57421875,-49.8046875,-29.78515625,0.0
1687381494.8379972,-54.19921875,-34.1796875,-51.7578125,-30.2734375,0.0
1687381494.8419018,101.5625,-34.66796875,-52.24609375,-2.44140625,0.0
1687381494.8458066,35.64453125,-41.015625,-41.50390625,14.16015625,0.0
1687381494.8497114,-129.39453125,-38.0859375,-37.109375,-8.7890625,0.0
1687381494.8536162,-81.0546875,-33.69140625,-34.66796875,-16.6015625,0.0
1687381494.8575208,62.5,-30.76171875,-32.2265625,-5.37109375,0.0
1687381494.8614256,67.87109375,-33.203125,-38.57421875,-8.30078125,0.0
1687381494.8653305,-116.2109375,-39.55078125,-48.33984375,-35.15625,0.0
1687381494.869235,-121.58203125,-38.57421875,-54.6875,-46.875,0.0
1687381494.8731399,13.671875,-35.64453125,-52.24609375,-30.2734375,0.0
1687381494.8770447,103.515625,-32.2265625,-46.38671875,-9.27734375,0.0
1687381494.8810196,-62.01171875,-30.76171875,-42.96875,-33.203125,0.0
1687381494.8849244,-138.671875,-37.109375,-55.17578125,-48.828125,0.0
1687381494.888829,-36.62109375,-41.50390625,-63.96484375,-27.83203125,0.0
1687381494.8927338,103.515625,-38.57421875,-53.7109375,-12.20703125,0.0
1687381494.8966386,-14.6484375,-34.66796875,-54.6875,-14.6484375,0.0
1687381494.9005435,-150.87890625,-36.62109375,-71.77734375,-26.85546875,0.0
1687381494.904448,-80.078125,-39.55078125,-69.82421875,-36.1328125,0.0
1687381494.9083529,75.68359375,-40.0390625,-56.15234375,-13.671875,0.0
1687381494.9122577,52.734375,-37.109375,-43.45703125,3.90625,0.0
1687381494.9161623,-121.09375,-41.015625,-42.96875,-16.6015625,0.0
1687381494.920067,-108.88671875,-45.8984375,-54.6875,-36.1328125,0.0
1687381494.923972,37.109375,-43.45703125,-59.08203125,-31.73828125,0.0
1687381494.927937,78.61328125,-38.0859375,-54.6875,-10.25390625,0.0
1687381494.9318419,-103.02734375,-33.69140625,-53.22265625,-30.2734375,0.0
1687381494.9357464,-134.765625,-39.55078125,-55.17578125,-35.64453125,0.0
1687381494.9396513,-8.30078125,-44.921875,-61.03515625,-6.34765625,0.0
1687381494.943556,107.421875,-45.8984375,-67.3828125,2.9296875,0.0
1687381494.947461,-46.875,-50.29296875,-71.77734375,-36.62109375,0.0
1687381494.9513655,-143.06640625,-53.22265625,-66.40625,-43.9453125,0.0
1687381494.9552703,-45.8984375,-46.875,-55.6640625,-9.765625,0.0
1687381494.959175,101.07421875,-43.45703125,-58.59375,-4.39453125,0.0
1687381494.9630797,1.46484375,-44.43359375,-62.98828125,-13.671875,0.0
1687381494.9669845,-150.390625,-46.38671875,-63.4765625,-30.76171875,0.0
1687381494.9708893,-96.19140625,-47.36328125,-63.4765625,-34.66796875,0.0
1687381494.9748485,61.5234375,-40.52734375,-58.59375,-11.23046875,0.0
1687381494.978753,52.734375,-37.109375,-54.6875,-9.27734375,0.0
1687381494.982658,-129.8828125,-38.0859375,-55.6640625,-44.921875,0.0
1687381494.9865627,-111.328125,-37.59765625,-58.10546875,-38.0859375,0.0
1687381494.9904673,36.1328125,-36.1328125,-49.8046875,-10.25390625,0.0
1687381494.9943721,100.09765625,-26.3671875,-41.9921875,-5.859375,0.0
1687381494.998277,-80.078125,-28.80859375,-51.7578125,-40.0390625,0.0
1687381495.0021818,-136.23046875,-37.109375,-55.6640625,-46.875,0.0
1687381495.0060863,-17.08984375,-35.15625,-47.8515625,-25.87890625,0.0
1687381495.0099912,107.91015625,-37.109375,-42.48046875,-13.18359375,0.0
1687381495.013896,-25.87890625,-33.69140625,-39.55078125,-25.390625,0.0
1687381495.0178006,-131.34765625,-32.2265625,-39.0625,-30.76171875,0.0
1687381495.0217538,-45.8984375,-34.1796875,-44.43359375,-20.5078125,0.0
1687381495.0256586,112.79296875,-22.94921875,-46.38671875,-9.27734375,0.0
1687381495.0295634,36.62109375,-18.5546875,-37.59765625,-19.04296875,0.0
1687381495.033468,-130.37109375,-29.296875,-38.57421875,-42.96875,0.0
1687381495.0373728,-81.0546875,-32.2265625,-41.9921875,-41.015625,0.0
1687381495.0412776,62.01171875,-31.73828125,-44.921875,-19.53125,0.0
1687381495.0451822,70.80078125,-23.4375,-49.8046875,-16.6015625,0.0
1687381495.049087,-104.4921875,-23.92578125,-56.640625,-38.57421875,0.0
1687381495.0529919,-114.74609375,-33.203125,-58.10546875,-41.015625,0.0
1687381495.0568964,14.16015625,-33.69140625,-46.38671875,-28.80859375,0.0
1687381495.0608013,106.4453125,-31.73828125,-42.96875,-5.859375,0.0
1687381495.064706,-47.8515625,-31.25,-47.36328125,-14.6484375,0.0
1687381495.0686526,-121.58203125,-27.83203125,-46.38671875,-20.01953125,0.0
1687381495.0725574,-17.578125,-29.296875,-44.921875,-8.7890625,0.0
1687381495.076462,114.74609375,-33.69140625,-49.8046875,-0.48828125,0.0
1687381495.0803668,-13.18359375,-35.15625,-51.26953125,-9.765625,0.0
1687381495.0842717,-140.13671875,-31.73828125,-45.8984375,-11.71875,0.0
1687381495.0881765,-65.4296875,-33.203125,-41.015625,-5.37109375,0.0
1687381495.092081,86.42578125,-33.203125,-50.29296875,-2.9296875,0.0
1687381495.095986,47.8515625,-29.296875,-48.33984375,-1.953125,0.0
1687381495.0998907,-125.0,-27.83203125,-39.0625,-29.296875,0.0
1687381495.1037953,-101.5625,-29.296875,-52.734375,-30.2734375,0.0
1687381495.1077,39.0625,-32.2265625,-59.5703125,-8.7890625,0.0
1687381495.111605,79.58984375,-29.78515625,-53.7109375,-3.90625,0.0
1687381495.1155457,-92.28515625,-29.78515625,-48.828125,-11.71875,0.0
1687381495.1194506,-112.3046875,-31.25,-48.33984375,1.46484375,0.0
1687381495.1233552,8.7890625,-39.0625,-52.734375,-9.27734375,0.0
1687381495.12726,113.76953125,-39.55078125,-47.8515625,-27.34375,0.0
1687381495.1311648,-32.71484375,-31.25,-44.921875,-26.85546875,0.0
1687381495.1350696,-128.90625,-31.25,-48.828125,-26.85546875,0.0
1687381495.1389742,-32.71484375,-31.73828125,-47.8515625,-13.18359375,0.0
1687381495.142879,110.3515625,-33.69140625,-44.43359375,13.18359375,0.0
1687381495.1467838,-0.9765625,-38.0859375,-53.22265625,-20.99609375,0.0
1687381495.1506884,-145.01953125,-41.015625,-56.640625,-58.10546875,0.0
1687381495.1545932,-81.0546875,-41.9921875,-57.12890625,-19.53125,0.0
1687381495.158498,73.73046875,-35.15625,-55.17578125,3.41796875,0.0
1687381495.1624339,54.19921875,-32.71484375,-44.921875,-6.8359375,0.0
1687381495.1663387,-125.0,-35.64453125,-48.33984375,-35.64453125,0.0
1687381495.1702435,-108.88671875,-38.57421875,-46.38671875,-29.78515625,0.0
1687381495.174148,28.80859375,-44.43359375,-47.8515625,-0.9765625,0.0
1687381495.178053,86.42578125,-40.52734375,-58.10546875,-16.11328125,0.0
1687381495.1819577,-85.9375,-39.0625,-57.12890625,-41.015625,0.0
1687381495.1858625,-128.41796875,-41.50390625,-53.7109375,-39.55078125,0.0
1687381495.1897671,-12.6953125,-41.50390625,-49.31640625,-28.3203125,0.0
1687381495.193672,105.95703125,-39.0625,-45.8984375,-9.765625,0.0
1687381495.1975768,-35.15625,-38.57421875,-51.7578125,-31.73828125,0.0
1687381495.2014813,-144.53125,-40.0390625,-52.24609375,-46.875,0.0
1687381495.2053862,-55.6640625,-41.9921875,-55.6640625,-28.3203125,0.0
1687381495.2093654,100.09765625,-40.0390625,-51.26953125,-15.13671875,0.0
1687381495.2132702,26.3671875,-33.203125,-43.9453125,-21.484375,0.0
1687381495.2171748,-136.23046875,-41.015625,-58.10546875,-48.33984375,0.0
1687381495.2210796,-89.35546875,-43.9453125,-59.5703125,-44.921875,0.0
1687381495.2249844,63.4765625,-37.109375,-50.78125,-16.11328125,0.0
1687381495.2288892,67.3828125,-33.203125,-50.29296875,-10.25390625,0.0
1687381495.2327938,-112.79296875,-30.2734375,-49.31640625,-29.78515625,0.0
1687381495.2366986,-104.98046875,-26.85546875,-44.921875,-26.3671875,0.0
1687381495.2406034,28.80859375,-31.25,-45.8984375,-9.27734375,0.0
1687381495.2445083,100.5859375,-38.0859375,-46.875,10.7421875,0.0
1687381495.2484128,-68.359375,-39.0625,-60.05859375,-18.5546875,0.0
1687381495.2523177,-129.39453125,-34.66796875,-72.265625,-45.8984375,0.0
1687381495.2562895,-16.6015625,-30.76171875,-63.96484375,-21.97265625,0.0
1687381495.2601943,113.76953125,-35.15625,-56.640625,0.9765625,0.0
1687381495.2640991,-16.6015625,-39.0625,-55.17578125,-20.5078125,0.0
1687381495.2680037,-146.484375,-35.64453125,-58.10546875,-35.15625,0.0
1687381495.2719085,-62.98828125,-39.55078125,-64.94140625,-35.15625,0.0
1687381495.2758133,100.09765625,-42.48046875,-63.96484375,-14.16015625,0.0
1687381495.2797182,46.38671875,-35.64453125,-59.08203125,-1.953125,0.0
1687381495.2836227,-130.37109375,-30.76171875,-62.5,-25.390625,0.0
1687381495.2875276,-102.5390625,-36.62109375,-67.87109375,-35.15625,0.0
1687381495.2914324,49.31640625,-36.62109375,-61.03515625,-18.5546875,0.0
1687381495.2953372,81.0546875,-32.71484375,-56.15234375,-5.859375,0.0
1687381495.2992418,-103.02734375,-36.62109375,-62.01171875,-37.59765625,0.0
1687381495.303208,-125.9765625,-40.0390625,-61.03515625,-36.1328125,0.0
1687381495.307113,2.9296875,-43.45703125,-60.546875,-18.06640625,0.0
1687381495.3110175,110.83984375,-35.64453125,-62.5,-15.625,0.0
1687381495.3149223,-45.41015625,-27.34375,-50.29296875,-28.3203125,0.0
1687381495.3188272,-126.46484375,-28.3203125,-45.8984375,-34.1796875,0.0
1687381495.322732,-27.34375,-32.71484375,-62.98828125,-27.34375,0.0
1687381495.3266366,113.28125,-30.2734375,-60.05859375,-21.97265625,0.0
1687381495.3305414,7.32421875,-28.3203125,-52.24609375,-29.78515625,0.0
1687381495.3344462,-144.04296875,-40.0390625,-57.12890625,-47.36328125,0.0
1687381495.3383508,-81.0546875,-39.55078125,-57.12890625,-37.109375,0.0
1687381495.3422556,73.73046875,-36.62109375,-63.96484375,-13.18359375,0.0
1687381495.3461604,41.015625,-38.0859375,-65.4296875,0.9765625,0.0
1687381495.3501194,-140.625,-38.57421875,-65.4296875,-32.71484375,0.0
1687381495.354024,-109.375,-43.9453125,-71.77734375,-53.7109375,0.0
1687381495.3579288,38.0859375,-44.921875,-66.89453125,-28.80859375,0.0
1687381495.3618336,85.44921875,-38.57421875,-67.87109375,-14.6484375,0.0
1687381495.3657384,-84.47265625,-39.55078125,-75.68359375,-38.57421875,0.0
1687381495.369643,-126.46484375,-45.8984375,-72.75390625,-37.109375,0.0
1687381495.3735478,-9.27734375,-39.0625,-67.87109375,-10.25390625,0.0
1687381495.3774526,116.2109375,-27.83203125,-61.5234375,3.41796875,0.0
1687381495.3813574,-24.4140625,-28.80859375,-53.22265625,-11.23046875,0.0
1687381495.385262,-125.48828125,-33.69140625,-51.7578125,-19.53125,0.0
1687381495.3891668,-40.52734375,-37.59765625,-66.89453125,-26.85546875,0.0
1687381495.3930717,106.4453125,-38.0859375,-76.171875,-18.5546875,0.0
1687381495.397026,24.4140625,-33.69140625,-72.75390625,-11.71875,0.0
1687381495.4009306,-131.8359375,-35.15625,-73.2421875,-29.296875,0.0
1687381495.4048355,-83.0078125,-38.57421875,-83.0078125,-41.9921875,0.0
1687381495.4087403,68.359375,-43.9453125,-85.9375,-38.57421875,0.0
1687381495.412645,68.359375,-44.43359375,-73.2421875,-33.203125,0.0
1687381495.4165497,-114.2578125,-41.9921875,-71.2890625,-48.33984375,0.0
1687381495.4204545,-108.88671875,-48.33984375,-78.125,-46.875,0.0
1687381495.4243593,26.85546875,-47.36328125,-68.359375,-16.6015625,0.0
1687381495.4282641,106.4453125,-41.50390625,-61.5234375,-13.18359375,0.0
1687381495.4321687,-64.94140625,-42.96875,-63.4765625,-33.69140625,0.0
1687381495.4360735,-129.8828125,-40.52734375,-68.359375,-36.1328125,0.0
1687381495.4399784,-13.18359375,-39.55078125,-77.1484375,-32.71484375,0.0
1687381495.443927,123.046875,-38.0859375,-66.40625,-9.765625,0.0
1687381495.4478319,-11.23046875,-36.1328125,-61.5234375,-1.953125,0.0
1687381495.4517365,-137.20703125,-37.109375,-68.84765625,-20.99609375,0.0
1687381495.4556413,-60.05859375,-41.015625,-62.5,-19.53125,0.0
1687381495.459546,94.7265625,-42.48046875,-59.08203125,9.765625,0.0
1687381495.463451,32.2265625,-37.59765625,-67.3828125,-8.30078125,0.0
1687381495.4673555,-145.99609375,-31.25,-71.2890625,-50.78125,0.0
1687381495.4712603,-105.95703125,-29.78515625,-78.61328125,-37.59765625,0.0
1687381495.4751651,39.55078125,-35.64453125,-76.171875,-0.9765625,0.0
1687381495.47907,66.89453125,-37.109375,-66.89453125,-4.8828125,0.0
1687381495.4829745,-101.5625,-44.43359375,-67.87109375,-34.1796875,0.0
1687381495.4868793,-117.1875,-48.33984375,-79.1015625,-41.015625,0.0
1687381495.490822,12.20703125,-39.55078125,-77.1484375,-23.4375,0.0
1687381495.494727,117.67578125,-28.80859375,-63.4765625,0.9765625,0.0
1687381495.4986315,-41.015625,-32.2265625,-65.4296875,-18.06640625,0.0
1687381495.5025363,-123.046875,-33.69140625,-62.5,-23.92578125,0.0
1687381495.506441,-23.92578125,-32.71484375,-60.546875,-16.11328125,0.0
1687381495.510346,105.95703125,-39.55078125,-67.3828125,-20.01953125,0.0
1687381495.5142505,-6.34765625,-36.62109375,-65.4296875,-26.85546875,0.0
1687381495.5181553,-133.30078125,-23.92578125,-57.6171875,-40.0390625,0.0
1687381495.5220602,-61.03515625,-21.484375,-54.19921875,-37.109375,0.0
1687381495.525965,80.078125,-37.59765625,-51.26953125,-21.484375,0.0
1687381495.5298696,41.015625,-43.9453125,-57.6171875,-34.66796875,0.0
1687381495.5337744,-129.8828125,-39.55078125,-67.3828125,-61.5234375,0.0
1687381495.5377114,-105.46875,-40.52734375,-64.453125,-45.8984375,0.0
1687381495.541616,32.71484375,-39.55078125,-71.2890625,-22.94921875,0.0
1687381495.5455208,85.44921875,-34.1796875,-73.2421875,-13.671875,0.0
1687381495.5494256,-83.49609375,-32.71484375,-72.75390625,-40.52734375,0.0
1687381495.5533304,-117.67578125,-32.71484375,-62.01171875,-55.6640625,0.0
1687381495.557235,1.46484375,-32.2265625,-59.5703125,-23.92578125,0.0
1687381495.5611398,104.98046875,-33.203125,-69.82421875,-4.8828125,0.0
1687381495.5650446,-43.45703125,-33.69140625,-65.91796875,-24.90234375,0.0
1687381495.5689495,-139.16015625,-30.76171875,-66.89453125,-42.48046875,0.0
1687381495.572854,-46.38671875,-24.90234375,-64.94140625,-44.43359375,0.0
1687381495.5767589,92.7734375,-31.25,-64.453125,-35.64453125,0.0
1687381495.5806637,-10.7421875,-42.96875,-78.61328125,-53.22265625,0.0
1687381495.5845945,-159.1796875,-42.96875,-83.49609375,-63.4765625,0.0
1687381495.5884993,-99.12109375,-43.45703125,-83.0078125,-49.8046875,0.0
1687381495.592404,60.05859375,-42.96875,-79.1015625,-23.4375,0.0
1687381495.5963087,58.59375,-38.0859375,-73.73046875,-24.90234375,0.0
1687381495.6002135,-119.140625,-38.0859375,-72.75390625,-47.8515625,0.0
1687381495.6041183,-107.421875,-41.9921875,-76.171875,-36.62109375,0.0
1687381495.608023,21.484375,-44.921875,-79.58984375,-31.73828125,0.0
1687381495.6119277,87.40234375,-45.41015625,-72.75390625,-23.92578125,0.0
1687381495.6158326,-79.1015625,-42.48046875,-72.75390625,-36.1328125,0.0
1687381495.6197374,-136.23046875,-41.015625,-81.0546875,-47.8515625,0.0
1687381495.623642,-22.4609375,-39.0625,-73.2421875,-26.85546875,0.0
1687381495.6275468,101.5625,-37.109375,-66.89453125,-15.625,0.0
1687381495.6315186,-32.71484375,-37.59765625,-76.171875,-31.25,0.0
1687381495.6354234,-145.99609375,-41.015625,-78.125,-47.8515625,0.0
1687381495.6393282,-56.640625,-39.55078125,-76.66015625,-34.66796875,0.0
1687381495.6432328,88.8671875,-38.57421875,-74.21875,-20.99609375,0.0
1687381495.6471376,20.01953125,-41.9921875,-71.2890625,-22.94921875,0.0
1687381495.6510425,-127.9296875,-38.0859375,-57.12890625,-38.0859375,0.0
1687381495.6549473,-87.40234375,-31.25,-52.24609375,-43.9453125,0.0
1687381495.6588519,56.15234375,-26.85546875,-60.546875,-32.71484375,0.0
1687381495.6627567,89.35546875,-24.90234375,-53.22265625,-21.97265625,0.0
1687381495.6666615,-83.0078125,-20.01953125,-46.875,-38.0859375,0.0
1687381495.6705663,-96.6796875,-20.99609375,-47.36328125,-23.4375,0.0
1687381495.674471,31.73828125,-31.25,-57.6171875,0.9765625,0.0
1687381495.6784368,112.79296875,-30.2734375,-59.5703125,8.30078125,0.0
1687381495.6823416,-61.03515625,-35.15625,-51.26953125,-12.20703125,0.0
1687381495.6862464,-128.90625,-41.015625,-42.96875,-33.203125,0.0
1687381495.6901512,-19.53125,-38.57421875,-46.875,-12.6953125,0.0
1687381495.6940558,114.2578125,-32.71484375,-46.875,7.32421875,0.0
1687381495.6979606,5.859375,-29.78515625,-43.45703125,-15.13671875,0.0
1687381495.7018654,-128.90625,-36.62109375,-49.8046875,-43.45703125,0.0
1687381495.7057703,-57.12890625,-34.66796875,-51.7578125,-37.109375,0.0
1687381495.709675,102.05078125,-30.76171875,-36.62109375,-6.34765625,0.0
1687381495.7135797,55.17578125,-34.1796875,-34.66796875,-7.32421875,0.0
1687381495.7174845,-112.3046875,-24.90234375,-36.1328125,-16.11328125,0.0
1687381495.7213893,-75.1953125,-21.97265625,-31.73828125,-16.11328125,0.0
1687381495.725349,54.19921875,-32.71484375,-40.52734375,-2.9296875,0.0
1687381495.7292538,100.5859375,-37.59765625,-43.45703125,8.30078125,0.0
1687381495.7331583,-73.73046875,-45.41015625,-40.52734375,-17.08984375,0.0
1687381495.7370632,-109.86328125,-42.96875,-39.0625,-15.625,0.0
1687381495.740968,9.765625,-38.0859375,-43.9453125,-16.6015625,0.0
1687381495.7448728,112.79296875,-36.62109375,-48.33984375,-2.44140625,0.0
1687381495.7487774,-38.57421875,-40.0390625,-43.9453125,-18.06640625,0.0
1687381495.7526822,-126.953125,-33.203125,-42.96875,-41.9921875,0.0
1687381495.756587,-31.25,-30.76171875,-44.43359375,-36.62109375,0.0
1687381495.7604918,111.328125,-35.15625,-36.62109375,-18.5546875,0.0
1687381495.7643964,12.20703125,-36.62109375,-36.1328125,-17.578125,0.0
1687381495.7683012,-140.13671875,-42.48046875,-39.55078125,-35.64453125,0.0
1687381495.7722557,-77.63671875,-37.59765625,-35.64453125,-26.85546875,0.0
1687381495.7761602,71.77734375,-32.71484375,-35.15625,0.0,0.0
1687381495.780065,57.12890625,-34.1796875,-39.55078125,-8.7890625,0.0
1687381495.7839699,-116.2109375,-38.57421875,-36.1328125,-44.921875,0.0
1687381495.7878747,-98.14453125,-39.0625,-34.1796875,-40.0390625,0.0
1687381495.7917795,34.1796875,-38.0859375,-40.52734375,-19.04296875,0.0
1687381495.795684,92.7734375,-40.52734375,-40.0390625,-18.5546875,0.0
1687381495.799589,-76.171875,-44.43359375,-42.48046875,-44.43359375,0.0
1687381495.8034937,-125.0,-43.9453125,-51.7578125,-47.8515625,0.0
1687381495.8073986,-10.25390625,-41.50390625,-54.6875,-15.625,0.0
1687381495.8113031,117.67578125,-38.0859375,-42.96875,10.7421875,0.0
1687381495.815208,-14.6484375,-36.62109375,-36.62109375,-14.16015625,0.0
1687381495.8191571,-131.34765625,-39.0625,-35.64453125,-29.78515625,0.0
1687381495.8230617,-50.29296875,-44.921875,-40.52734375,-29.296875,0.0
1687381495.8269665,99.609375,-43.45703125,-46.38671875,-11.23046875,0.0
1687381495.8308713,33.203125,-41.50390625,-44.921875,-9.765625,0.0
1687381495.8347762,-123.046875,-42.96875,-48.828125,-29.296875,0.0
1687381495.8386807,-76.66015625,-36.62109375,-44.921875,-22.4609375,0.0
1687381495.8425856,66.40625,-37.59765625,-38.57421875,1.46484375,0.0
1687381495.8464904,79.1015625,-42.48046875,-35.15625,12.20703125,0.0
1687381495.8503952,-100.09765625,-42.48046875,-45.41015625,-25.390625,0.0
1687381495.8543,-110.3515625,-43.45703125,-53.7109375,-33.69140625,0.0
1687381495.8582046,26.3671875,-37.109375,-47.36328125,-11.23046875,0.0
1687381495.8621094,111.81640625,-33.203125,-52.24609375,-2.44140625,0.0
1687381495.866052,-49.31640625,-37.59765625,-49.31640625,-13.671875,0.0
1687381495.8699567,-112.3046875,-36.1328125,-41.50390625,-28.3203125,0.0
1687381495.8738616,-8.30078125,-32.2265625,-51.7578125,-23.92578125,0.0
1687381495.8777661,115.72265625,-34.66796875,-50.78125,-6.34765625,0.0
1687381495.881671,-4.8828125,-40.0390625,-46.875,-13.18359375,0.0
1687381495.8855758,-138.671875,-45.8984375,-47.36328125,-34.66796875,0.0
1687381495.8894806,-71.2890625,-49.31640625,-51.26953125,-29.78515625,0.0
1687381495.8933852,83.49609375,-47.8515625,-50.29296875,-6.34765625,0.0
1687381495.89729,51.7578125,-37.109375,-41.50390625,-2.9296875,0.0
1687381495.9011948,-110.3515625,-32.2265625,-36.62109375,-27.34375,0.0
1687381495.9050996,-81.54296875,-32.2265625,-37.59765625,-33.203125,0.0
1687381495.9090044,60.546875,-31.25,-43.45703125,-19.04296875,0.0
1687381495.912939,103.02734375,-37.59765625,-52.24609375,5.37109375,0.0
1687381495.9168437,-71.77734375,-37.59765625,-53.22265625,-0.48828125,0.0
1687381495.9207485,-104.00390625,-34.1796875,-50.29296875,-18.5546875,0.0
1687381495.9246533,7.8125,-39.55078125,-48.828125,-16.11328125,0.0
1687381495.928558,103.515625,-41.9921875,-49.31640625,-9.765625,0.0
1687381495.9324627,-42.96875,-35.64453125,-56.15234375,-17.578125,0.0
1687381495.9363675,-130.37109375,-41.015625,-60.546875,-16.6015625,0.0
1687381495.9402723,-37.59765625,-47.36328125,-53.7109375,-13.671875,0.0
1687381495.9441772,108.3984375,-42.96875,-47.36328125,-5.859375,0.0
1687381495.9480817,12.6953125,-41.9921875,-55.17578125,-13.671875,0.0
1687381495.9519866,-133.7890625,-41.015625,-61.03515625,-36.1328125,0.0
1687381495.9558914,-72.265625,-37.109375,-59.5703125,-37.109375,0.0
1687381495.9598217,81.0546875,-41.9921875,-58.59375,-11.71875,0.0
1687381495.9637265,62.98828125,-46.875,-58.10546875,-3.90625,0.0
1687381495.967631,-108.3984375,-41.50390625,-62.5,-25.390625,0.0
1687381495.971536,-87.890625,-39.0625,-62.5,-17.08984375,0.0
1687381495.9754407,40.52734375,-41.50390625,-65.91796875,-20.01953125,0.0
1687381495.9793456,99.609375,-35.64453125,-70.3125,-22.4609375,0.0
1687381495.9832504,-71.2890625,-36.62109375,-64.94140625,-26.3671875,0.0
1687381495.987155,-125.0,-38.57421875,-57.12890625,-32.2265625,0.0
1687381495.9910598,-17.08984375,-38.0859375,-58.59375,-28.80859375,0.0
1687381495.9949646,99.609375,-42.48046875,-59.5703125,-10.7421875,0.0
1687381495.9988694,-40.52734375,-40.52734375,-51.7578125,-20.01953125,0.0
1687381496.002774,-149.90234375,-30.2734375,-47.8515625,-39.0625,0.0
1687381496.0067458,-53.7109375,-30.2734375,-49.31640625,-25.390625,0.0
1687381496.0106506,108.3984375,-38.57421875,-54.6875,-7.8125,0.0
1687381496.0145555,35.15625,-37.59765625,-49.8046875,-9.27734375,0.0
1687381496.0184603,-127.44140625,-42.96875,-47.36328125,-9.27734375,0.0
1687381496.0223649,-87.890625,-42.96875,-51.7578125,-8.30078125,0.0
1687381496.0262697,61.03515625,-37.109375,-45.8984375,2.9296875,0.0
1687381496.0301745,76.66015625,-35.64453125,-47.8515625,0.48828125,0.0
1687381496.0340793,-108.3984375,-32.71484375,-48.828125,-27.34375,0.0
1687381496.0379841,-103.515625,-32.71484375,-39.0625,-19.53125,0.0
1687381496.0418887,32.71484375,-39.0625,-46.875,-4.39453125,0.0
1687381496.0457935,108.88671875,-36.1328125,-59.08203125,9.27734375,0.0
1687381496.0496984,-51.26953125,-31.25,-54.19921875,-21.484375,0.0
1687381496.0536637,-114.2578125,-28.3203125,-49.8046875,-36.62109375,0.0
1687381496.0575686,-1.46484375,-27.83203125,-44.921875,-10.25390625,0.0
1687381496.0614734,123.046875,-32.71484375,-45.8984375,3.90625,0.0
1687381496.0653782,-7.8125,-34.1796875,-49.8046875,-9.27734375,0.0
1687381496.069283,-130.859375,-28.3203125,-38.57421875,-16.6015625,0.0
1687381496.0731876,-45.41015625,-31.25,-39.0625,-7.32421875,0.0
1687381496.0770924,88.37890625,-26.3671875,-47.8515625,3.41796875,0.0
1687381496.0809972,21.484375,-21.484375,-54.6875,-7.8125,0.0
1687381496.084902,-118.65234375,-27.83203125,-62.01171875,-34.66796875,0.0
1687381496.0888069,-85.44921875,-30.76171875,-60.05859375,-41.015625,0.0
1687381496.0927114,57.12890625,-32.71484375,-55.17578125,-22.4609375,0.0
1687381496.0966163,100.5859375,-24.90234375,-53.22265625,-0.9765625,0.0
1687381496.1005743,-81.0546875,-23.92578125,-56.15234375,-23.92578125,0.0
1687381496.104479,-106.4453125,-24.4140625,-49.8046875,-16.6015625,0.0
1687381496.108384,23.92578125,-25.87890625,-48.33984375,-9.765625,0.0
1687381496.1122885,117.1875,-35.64453125,-64.453125,-8.30078125,0.0
1687381496.1161933,-41.50390625,-40.0390625,-71.77734375,-19.04296875,0.0
1687381496.120098,-133.7890625,-41.9921875,-69.3359375,-26.85546875,0.0
1687381496.124003,-45.41015625,-45.41015625,-68.84765625,-12.20703125,0.0
1687381496.1279078,101.5625,-39.0625,-64.94140625,-17.578125,0.0
1687381496.1318123,-5.859375,-34.66796875,-64.453125,-33.69140625,0.0
1687381496.1357172,-151.3671875,-37.109375,-63.4765625,-47.36328125,0.0
1687381496.139622,-86.9140625,-37.59765625,-60.05859375,-49.31640625,0.0
1687381496.1435268,65.91796875,-32.2265625,-56.15234375,-30.2734375,0.0
1687381496.1474786,40.52734375,-36.1328125,-66.40625,-29.296875,0.0
1687381496.1513834,-141.6015625,-44.921875,-84.47265625,-60.546875,0.0
1687381496.1552882,-118.1640625,-42.48046875,-82.51953125,-61.03515625,0.0
1687381496.1591928,20.5078125,-41.015625,-79.1015625,-30.76171875,0.0
1687381496.1630976,78.61328125,-42.96875,-82.51953125,-11.71875,0.0
1687381496.1670024,-97.65625,-45.8984375,-88.37890625,-27.83203125,0.0
1687381496.1709073,-144.53125,-47.36328125,-83.984375,-49.8046875,0.0
1687381496.174812,-18.5546875,-41.9921875,-69.3359375,-40.0390625,0.0
1687381496.1787167,104.00390625,-37.59765625,-56.640625,-15.13671875,0.0
1687381496.1826215,-40.52734375,-36.62109375,-63.4765625,-28.80859375,0.0
1687381496.1865263,-149.90234375,-35.15625,-67.3828125,-46.875,0.0
1687381496.190431,-63.96484375,-42.96875,-69.3359375,-46.875,0.0
1687381496.1943777,96.19140625,-41.9921875,-74.21875,-14.16015625,0.0
1687381496.1982822,15.625,-41.50390625,-75.1953125,-16.6015625,0.0
1687381496.202187,-145.5078125,-49.31640625,-78.61328125,-48.828125,0.0
1687381496.206092,-92.28515625,-46.875,-81.0546875,-43.45703125,0.0
1687381496.2099967,45.8984375,-39.0625,-79.1015625,-16.6015625,0.0
1687381496.2139015,46.38671875,-42.48046875,-75.1953125,-9.27734375,0.0
1687381496.217806,-116.2109375,-42.96875,-67.87109375,-20.5078125,0.0
1687381496.221711,-111.328125,-43.9453125,-66.40625,-27.83203125,0.0
1687381496.2256157,14.6484375,-53.22265625,-62.5,-30.2734375,0.0
1687381496.2295206,104.00390625,-44.921875,-60.05859375,-18.06640625,0.0
1687381496.2334251,-56.640625,-40.52734375,-67.87109375,-29.296875,0.0
1687381496.23733,-121.09375,-40.0390625,-67.87109375,-38.57421875,0.0
1687381496.241279,-8.7890625,-34.1796875,-62.5,-25.390625,0.0
1687381496.2451837,111.328125,-39.0625,-67.87109375,-7.8125,0.0
1687381496.2490885,-10.7421875,-41.015625,-63.96484375,-12.6953125,0.0
1687381496.2529933,-127.44140625,-34.66796875,-58.10546875,-23.92578125,0.0
1687381496.256898,-62.5,-40.52734375,-70.3125,-26.85546875,0.0
1687381496.2608027,86.42578125,-47.8515625,-67.3828125,-7.32421875,0.0
1687381496.2647076,34.66796875,-42.96875,-65.4296875,-9.27734375,0.0
1687381496.2686124,-133.30078125,-35.64453125,-77.1484375,-43.9453125,0.0
1687381496.2725172,-89.35546875,-28.80859375,-63.4765625,-42.48046875,0.0
1687381496.2764218,62.98828125,-29.296875,-57.6171875,-20.5078125,0.0
1687381496.2803266,85.44921875,-28.3203125,-62.01171875,-8.7890625,0.0
1687381496.2842314,-98.6328125,-29.78515625,-56.15234375,-36.1328125,0.0
1687381496.2881672,-111.81640625,-30.2734375,-52.734375,-48.828125,0.0
1687381496.292072,14.16015625,-27.83203125,-55.17578125,-31.73828125,0.0
1687381496.2959769,109.86328125,-34.1796875,-65.4296875,-21.97265625,0.0
1687381496.2998817,-36.1328125,-36.1328125,-78.125,-33.203125,0.0
1687381496.3037863,-119.140625,-32.71484375,-88.8671875,-36.62109375,0.0
1687381496.307691,-20.5078125,-32.2265625,-90.33203125,-37.109375,0.0
1687381496.311596,121.58203125,-29.296875,-78.125,-11.23046875,0.0
1687381496.3155007,11.71875,-27.83203125,-75.68359375,-20.01953125,0.0
1687381496.3194056,-130.37109375,-36.1328125,-86.9140625,-46.38671875,0.0
1687381496.3233101,-68.84765625,-43.9453125,-88.37890625,-40.52734375,0.0
1687381496.327215,91.796875,-33.203125,-74.21875,-25.87890625,0.0
1687381496.3311198,61.03515625,-25.87890625,-68.84765625,-27.83203125,0.0
1687381496.3350496,-122.0703125,-32.2265625,-73.2421875,-35.64453125,0.0
1687381496.3389544,-95.703125,-36.62109375,-70.3125,-19.53125,0.0
1687381496.3428593,40.52734375,-37.109375,-58.10546875,-10.7421875,0.0
1687381496.346764,96.19140625,-31.25,-51.26953125,-0.48828125,0.0
1687381496.3506687,-69.82421875,-28.3203125,-59.08203125,-15.625,0.0
1687381496.3545735,-103.515625,-31.73828125,-62.5,-24.90234375,0.0
1687381496.3584783,22.4609375,-29.78515625,-56.640625,0.0,0.0
1687381496.3623831,129.8828125,-24.4140625,-50.29296875,23.92578125,0.0
1687381496.366288,-12.20703125,-17.08984375,-51.26953125,-9.27734375,0.0
1687381496.3701925,-113.76953125,-15.625,-58.59375,-29.296875,0.0
1687381496.3740973,-29.296875,-20.99609375,-56.15234375,-15.13671875,0.0
1687381496.3780022,120.1171875,-26.85546875,-55.6640625,5.37109375,0.0
1687381496.3819723,37.109375,-24.90234375,-53.22265625,5.37109375,0.0
1687381496.385877,-115.72265625,-26.85546875,-49.31640625,-11.23046875,0.0
1687381496.3897817,-66.40625,-23.92578125,-51.26953125,-4.8828125,0.0
1687381496.3936865,65.4296875,-25.390625,-60.546875,3.90625,0.0
1687381496.3975914,63.96484375,-29.296875,-62.5,-5.37109375,0.0
1687381496.4014962,-104.98046875,-26.85546875,-60.546875,-20.5078125,0.0
1687381496.4054008,-110.83984375,-26.85546875,-69.3359375,-28.3203125,0.0
1687381496.4093056,20.01953125,-22.4609375,-58.59375,-26.85546875,0.0
1687381496.4132104,95.21484375,-30.76171875,-49.8046875,-0.48828125,0.0
1687381496.4171152,-74.70703125,-35.64453125,-57.6171875,-27.34375,0.0
1687381496.42102,-130.859375,-38.0859375,-62.01171875,-45.41015625,0.0
1687381496.4249246,-18.06640625,-37.109375,-61.03515625,-20.99609375,0.0
1687381496.4288886,110.3515625,-28.80859375,-51.26953125,3.41796875,0.0
1687381496.4327934,-22.4609375,-29.78515625,-57.12890625,-15.13671875,0.0
1687381496.4366982,-137.6953125,-34.66796875,-58.59375,-37.109375,0.0
1687381496.440603,-47.8515625,-34.1796875,-50.78125,-26.3671875,0.0
1687381496.4445078,88.37890625,-35.64453125,-49.8046875,-8.30078125,0.0
1687381496.4484124,18.5546875,-34.1796875,-46.875,-2.44140625,0.0
1687381496.4523172,-135.25390625,-29.296875,-53.22265625,-21.484375,0.0
1687381496.456222,-93.75,-35.15625,-51.7578125,-28.3203125,0.0
1687381496.4601269,53.7109375,-37.59765625,-48.33984375,-8.7890625,0.0
1687381496.4640317,73.73046875,-37.59765625,-45.8984375,1.46484375,0.0
1687381496.4679365,-104.4921875,-39.0625,-40.52734375,-11.23046875,0.0
1687381496.471841,-116.2109375,-37.59765625,-42.48046875,-21.484375,0.0
1687381496.475847,14.16015625,-36.1328125,-42.48046875,-19.04296875,0.0
1687381496.4797518,105.95703125,-31.73828125,-40.52734375,13.671875,0.0
1687381496.4836566,-53.22265625,-34.66796875,-47.36328125,0.0,0.0
1687381496.4875615,-124.51171875,-35.64453125,-46.875,-20.99609375,0.0
1687381496.4914663,-24.4140625,-34.1796875,-45.8984375,-5.859375,0.0
1687381496.4953709,104.98046875,-36.62109375,-57.6171875,-10.7421875,0.0
1687381496.4992757,-4.39453125,-30.2734375,-48.33984375,-22.4609375,0.0
1687381496.5031805,-135.7421875,-27.83203125,-43.9453125,-30.76171875,0.0
1687381496.5070853,-65.91796875,-26.3671875,-49.8046875,-27.34375,0.0
1687381496.5109901,84.47265625,-24.90234375,-43.45703125,-3.41796875,0.0
1687381496.514895,48.828125,-31.25,-51.26953125,-9.27734375,0.0
1687381496.5187995,-126.46484375,-42.48046875,-60.546875,-34.1796875,0.0
1687381496.5227516,-107.91015625,-40.52734375,-57.6171875,-37.109375,0.0
1687381496.5266562,29.78515625,-38.0859375,-57.6171875,-29.296875,0.0
1687381496.530561,85.9375,-35.64453125,-48.828125,-4.39453125,0.0
1687381496.5344658,-86.42578125,-31.73828125,-41.9921875,-4.8828125,0.0
1687381496.5383706,-118.65234375,-33.69140625,-50.29296875,-12.6953125,0.0
1687381496.5422754,-0.48828125,-31.25,-43.9453125,-2.9296875,0.0
1687381496.54618,107.91015625,-35.15625,-40.0390625,2.44140625,0.0
1687381496.5500848,-34.1796875,-41.50390625,-46.38671875,-17.578125,0.0
1687381496.5539896,-132.32421875,-45.8984375,-44.921875,-35.15625,0.0
1687381496.5578945,-42.96875,-41.50390625,-39.55078125,-29.296875,0.0
1687381496.5617993,111.328125,-27.83203125,-41.50390625,-5.37109375,0.0
1687381496.565704,21.97265625,-27.83203125,-44.43359375,-2.44140625,0.0
1687381496.5696497,-141.6015625,-31.25,-41.015625,-28.3203125,0.0
1687381496.5735545,-82.51953125,-30.2734375,-36.1328125,-38.57421875,0.0
1687381496.5774593,71.77734375,-33.69140625,-39.55078125,-1.953125,0.0
1687381496.5813642,48.828125,-47.36328125,-48.828125,-0.48828125,0.0
1687381496.585269,-144.53125,-67.3828125,-72.75390625,-65.4296875,0.0
1687381496.5891738,-151.85546875,-83.984375,-97.65625,-94.23828125,0.0
1687381496.5930784,-36.62109375,-102.05078125,-116.2109375,-97.16796875,0.0
1687381496.5969832,15.625,-121.58203125,-130.37109375,-83.49609375,0.0
1687381496.600888,-161.62109375,-128.90625,-141.6015625,-108.88671875,0.0
1687381496.6047928,-223.6328125,-126.953125,-146.97265625,-143.5546875,0.0
1687381496.6086977,-113.28125,-125.48828125,-144.04296875,-134.765625,0.0
1687381496.6126025,3.90625,-132.32421875,-142.578125,-110.83984375,0.0
1687381496.6165423,-126.953125,-143.06640625,-153.3203125,-124.0234375,0.0
1687381496.620447,-234.375,-144.04296875,-165.0390625,-145.01953125,0.0
1687381496.6243517,-162.59765625,-145.99609375,-167.48046875,-142.578125,0.0
1687381496.6282566,-13.18359375,-148.4375,-162.109375,-115.72265625,0.0
1687381496.6321614,-68.359375,-144.53125,-159.66796875,-111.81640625,0.0
1687381496.6360662,-228.02734375,-149.4140625,-162.109375,-149.90234375,0.0
1687381496.6399708,-191.89453125,-150.390625,-158.203125,-144.53125,0.0
1687381496.6438756,-44.43359375,-142.578125,-158.69140625,-101.5625,0.0
1687381496.6477804,-23.4375,-142.578125,-164.55078125,-99.609375,0.0
1687381496.6516852,-205.078125,-145.5078125,-173.33984375,-134.27734375,0.0
1687381496.65559,-214.84375,-142.578125,-168.45703125,-131.34765625,0.0
1687381496.6594949,-83.49609375,-136.71875,-164.55078125,-118.1640625,0.0
1687381496.6634297,-0.48828125,-139.16015625,-162.59765625,-109.375,0.0
1687381496.6673346,-152.34375,-143.06640625,-155.2734375,-118.1640625,0.0
1687381496.6712394,-215.33203125,-141.11328125,-141.6015625,-119.140625,0.0
1687381496.675144,-110.3515625,-140.625,-136.71875,-110.3515625,0.0
1687381496.6790488,27.83203125,-132.32421875,-145.99609375,-104.4921875,0.0
1687381496.6829536,-91.796875,-127.44140625,-146.97265625,-97.16796875,0.0
1687381496.6868584,-228.515625,-133.30078125,-142.08984375,-111.81640625,0.0
1687381496.6907632,-151.3671875,-129.8828125,-134.765625,-119.140625,0.0
1687381496.694668,-2.9296875,-123.046875,-126.46484375,-83.0078125,0.0
1687381496.6985726,-41.015625,-119.62890625,-127.9296875,-80.078125,0.0
1687381496.7024775,-206.54296875,-120.60546875,-131.8359375,-113.28125,0.0
1687381496.7063823,-177.24609375,-114.2578125,-125.9765625,-110.83984375,0.0
1687381496.7103574,3.90625,-63.96484375,-83.0078125,-58.59375,0.0
1687381496.7142622,86.9140625,-21.97265625,-51.26953125,-1.953125,0.0
1687381496.718167,-80.56640625,-21.484375,-55.17578125,-12.6953125,0.0
1687381496.722072,-83.0078125,3.90625,-27.34375,4.8828125,0.0
1687381496.7259767,57.12890625,23.92578125,-5.37109375,41.015625,0.0
1687381496.7298813,171.38671875,27.83203125,1.953125,66.40625,0.0
1687381496.733786,29.296875,41.9921875,17.08984375,50.78125,0.0
1687381496.737691,-64.453125,41.9921875,24.90234375,40.0390625,0.0
1687381496.7415957,27.83203125,29.78515625,22.4609375,49.8046875,0.0
1687381496.7455006,159.1796875,20.99609375,-1.953125,44.43359375,0.0
1687381496.7494054,53.22265625,20.5078125,-15.625,28.80859375,0.0
1687381496.75331,-82.03125,28.80859375,-0.9765625,25.87890625,0.0
1687381496.7572794,-10.25390625,36.1328125,-1.953125,45.41015625,0.0
1687381496.761184,144.53125,43.9453125,0.9765625,68.84765625,0.0
1687381496.7650888,137.6953125,47.8515625,14.6484375,70.3125,0.0
1687381496.7689936,-46.38671875,35.64453125,7.8125,34.1796875,0.0
1687381496.7728984,-60.546875,8.30078125,-22.94921875,4.8828125,0.0
1687381496.7768033,44.43359375,-17.578125,-51.26953125,-8.30078125,0.0
1687381496.780708,88.37890625,-40.52734375,-67.87109375,-13.18359375,0.0
1687381496.7846127,-86.9140625,-52.734375,-73.2421875,-36.1328125,0.0
1687381496.7885175,-144.04296875,-63.4765625,-80.078125,-59.08203125,0.0
1687381496.7924223,-41.015625,-71.2890625,-91.796875,-48.33984375,0.0
1687381496.796327,67.3828125,-77.1484375,-96.19140625,-32.2265625,0.0
1687381496.800232,-76.171875,-89.35546875,-101.5625,-52.24609375,0.0
1687381496.8041975,-196.77734375,-97.65625,-106.4453125,-75.68359375,0.0
1687381496.8081024,-114.2578125,-100.09765625,-113.28125,-80.078125,0.0
1687381496.8120072,46.38671875,-100.5859375,-119.140625,-70.80078125,0.0
1687381496.8159118,-29.78515625,-100.5859375,-123.53515625,-72.75390625,0.0
1687381496.8198166,-203.125,-104.4921875,-133.30078125,-87.890625,0.0
1687381496.8237214,-157.2265625,-111.328125,-139.16015625,-96.19140625,0.0
1687381496.8276262,-14.6484375,-117.67578125,-141.6015625,-81.54296875,0.0
1687381496.831531,-0.9765625,-117.1875,-150.390625,-74.70703125,0.0
1687381496.8354359,-175.29296875,-118.1640625,-157.2265625,-91.30859375,0.0
1687381496.8393404,-162.109375,-101.5625,-142.578125,-80.078125,0.0
1687381496.8432453,-12.6953125,-85.9375,-129.8828125,-60.05859375,0.0
1687381496.84715,68.84765625,-91.796875,-135.25390625,-46.875,0.0
1687381496.8511124,-94.23828125,-96.6796875,-139.6484375,-52.734375,0.0
1687381496.8550172,-163.57421875,-104.00390625,-133.30078125,-55.6640625,0.0
1687381496.858922,-69.3359375,-111.328125,-133.7890625,-74.21875,0.0
1687381496.8628268,65.91796875,-108.3984375,-142.578125,-67.87109375,0.0
1687381496.8667316,-55.17578125,-101.5625,-140.625,-83.49609375,0.0
1687381496.8706362,-190.4296875,-100.5859375,-135.25390625,-99.609375,0.0
1687381496.874541,-110.3515625,-100.5859375,-132.32421875,-91.30859375,0.0
1687381496.8784459,38.57421875,-99.609375,-130.37109375,-76.171875,0.0
1687381496.8823507,-15.625,-100.09765625,-127.44140625,-57.6171875,0.0
1687381496.8862555,-185.546875,-101.07421875,-122.55859375,-90.33203125,0.0
1687381496.8901603,-149.90234375,-100.09765625,-114.74609375,-102.05078125,0.0
1687381496.8940651,-3.41796875,-92.7734375,-111.81640625,-65.4296875,0.0
1687381496.898018,37.59765625,-93.75,-112.79296875,-58.10546875,0.0
1687381496.9019227,-145.99609375,-95.703125,-104.98046875,-87.890625,0.0
1687381496.9058275,-164.55078125,-88.37890625,-91.796875,-81.0546875,0.0
1687381496.9097323,-31.73828125,-88.8671875,-83.984375,-62.98828125,0.0
1687381496.9136372,70.3125,-93.26171875,-89.84375,-62.5,0.0
1687381496.917542,-80.56640625,-88.8671875,-87.890625,-71.2890625,0.0
1687381496.9214466,-167.48046875,-89.35546875,-83.0078125,-66.89453125,0.0
1687381496.9253514,-66.89453125,-93.26171875,-83.0078125,-46.38671875,0.0
1687381496.9292562,73.73046875,-90.33203125,-81.0546875,-29.296875,0.0
1687381496.933161,-38.0859375,-87.40234375,-76.66015625,-57.6171875,0.0
1687381496.9370658,-183.59375,-83.0078125,-72.265625,-84.9609375,0.0
1687381496.9409707,-119.62890625,-75.68359375,-72.265625,-72.265625,0.0
1687381496.9449177,32.71484375,-78.125,-76.66015625,-45.8984375,0.0
1687381496.9488225,13.671875,-82.03125,-84.47265625,-45.41015625,0.0
1687381496.952727,-169.921875,-81.54296875,-85.44921875,-72.75390625,0.0
1687381496.956632,-150.390625,-79.58984375,-81.54296875,-81.54296875,0.0
1687381496.9605367,-4.8828125,-73.73046875,-79.58984375,-61.5234375,0.0
1687381496.9644415,57.12890625,-68.359375,-77.63671875,-40.0390625,0.0
1687381496.9683464,-110.83984375,-66.40625,-84.47265625,-58.10546875,0.0
1687381496.9722512,-157.2265625,-72.75390625,-88.8671875,-61.03515625,0.0
1687381496.976156,-43.45703125,-80.078125,-79.58984375,-31.25,0.0
1687381496.9800606,83.984375,-79.58984375,-77.1484375,-14.16015625,0.0
1687381496.9839654,-59.08203125,-75.1953125,-86.42578125,-54.19921875,0.0
1687381496.9878702,-171.38671875,-68.84765625,-93.26171875,-89.35546875,0.0
1687381496.9918103,-82.51953125,-63.4765625,-92.28515625,-74.70703125,0.0
1687381496.9957151,70.80078125,-67.87109375,-87.40234375,-43.45703125,0.0
1687381496.9996197,6.34765625,-66.89453125,-77.63671875,-36.62109375,0.0
1687381497.0035245,-156.73828125,-62.98828125,-75.68359375,-59.5703125,0.0
1687381497.0074294,-116.69921875,-60.546875,-75.1953125,-75.1953125,0.0
1687381497.0113342,40.0390625,-60.546875,-68.84765625,-55.6640625,0.0
1687381497.015239,54.6875,-63.4765625,-68.359375,-28.80859375,0.0
1687381497.0191438,-134.27734375,-62.5,-74.21875,-55.17578125,0.0
1687381497.0230486,-138.671875,-63.4765625,-76.66015625,-60.05859375,0.0
1687381497.0269532,-0.9765625,-64.94140625,-62.98828125,-20.01953125,0.0
1687381497.030858,80.078125,-68.359375,-59.5703125,-25.87890625,0.0
1687381497.0347629,-94.7265625,-76.66015625,-80.078125,-74.21875,0.0
1687381497.0386946,-165.52734375,-72.75390625,-80.078125,-70.3125,0.0
1687381497.0425994,-54.6875,-71.2890625,-70.3125,-49.31640625,0.0
1687381497.046504,75.1953125,-74.70703125,-72.265625,-43.9453125,0.0
1687381497.0504088,-47.36328125,-75.1953125,-74.70703125,-50.78125,0.0
1687381497.0543137,-175.78125,-73.73046875,-74.70703125,-64.94140625,0.0
1687381497.0582185,-100.5859375,-69.3359375,-76.171875,-68.359375,0.0
1687381497.0621233,56.15234375,-67.3828125,-80.078125,-39.0625,0.0
1687381497.066028,5.859375,-63.4765625,-79.1015625,-41.50390625,0.0
1687381497.069933,-160.15625,-61.03515625,-70.3125,-57.12890625,0.0
1687381497.0738375,-121.09375,-63.4765625,-64.94140625,-51.26953125,0.0
1687381497.0777423,17.08984375,-66.40625,-66.89453125,-49.8046875,0.0
1687381497.0816472,49.31640625,-60.546875,-71.77734375,-37.109375,0.0
1687381497.0855746,-129.8828125,-59.08203125,-75.68359375,-58.10546875,0.0
1687381497.0894794,-143.5546875,-58.59375,-78.61328125,-65.4296875,0.0
1687381497.0933843,-13.18359375,-55.17578125,-83.984375,-46.38671875,0.0
1687381497.0972888,82.51953125,-58.59375,-81.0546875,-28.3203125,0.0
1687381497.1011937,-67.87109375,-59.5703125,-73.73046875,-39.0625,0.0
1687381497.1050985,-163.57421875,-62.98828125,-78.125,-44.43359375,0.0
1687381497.1090033,-52.24609375,-63.4765625,-76.171875,-29.78515625,0.0
1687381497.1129081,82.03125,-58.59375,-71.77734375,-21.484375,0.0
1687381497.116813,-34.66796875,-64.453125,-86.42578125,-33.69140625,0.0
1687381497.1207178,-145.99609375,-61.5234375,-86.9140625,-42.96875,0.0
1687381497.1246223,-83.984375,-62.01171875,-82.51953125,-33.69140625,0.0
1687381497.1285272,64.94140625,-62.98828125,-86.42578125,-30.2734375,0.0
1687381497.1324956,46.875,-56.640625,-82.51953125,-42.96875,0.0
1687381497.1364005,-129.39453125,-58.10546875,-82.51953125,-61.5234375,0.0
1687381497.1403053,-82.51953125,-34.1796875,-56.640625,-25.390625,0.0
1687381497.14421,76.171875,-11.71875,-23.4375,20.01953125,0.0
1687381497.148115,137.6953125,11.71875,-12.6953125,30.76171875,0.0
1687381497.1520197,0.9765625,48.33984375,18.5546875,35.15625,0.0
1687381497.1559243,-38.57421875,48.828125,33.203125,27.83203125,0.0
1687381497.1598291,55.6640625,35.64453125,22.4609375,36.1328125,0.0
1687381497.163734,150.390625,20.99609375,4.39453125,42.48046875,0.0
1687381497.1676388,-2.44140625,4.39453125,-14.16015625,-1.953125,0.0
1687381497.1715436,-118.65234375,-3.90625,-21.97265625,-22.94921875,0.0
1687381497.1754484,-35.15625,-12.6953125,-32.71484375,-10.7421875,0.0
1687381497.17941,116.2109375,-25.87890625,-48.33984375,-6.8359375,0.0
1687381497.1833148,25.390625,-34.66796875,-62.98828125,-12.6953125,0.0
1687381497.1872196,-132.32421875,-39.0625,-64.94140625,-23.4375,0.0
1687381497.1911244,-83.984375,-46.875,-62.5,-32.71484375,0.0
1687381497.1950293,61.03515625,-46.875,-62.98828125,-15.625,0.0
1687381497.198934,66.89453125,-46.38671875,-57.6171875,0.9765625,0.0
1687381497.202839,-119.62890625,-55.17578125,-63.4765625,-32.71484375,0.0
1687381497.2067435,-91.30859375,-26.3671875,-42.96875,-8.7890625,0.0
1687381497.2106483,99.609375,31.25,9.27734375,63.96484375,0.0
1687381497.214553,207.03125,61.03515625,42.48046875,101.07421875,0.0
1687381497.218458,55.6640625,74.70703125,54.6875,90.8203125,0.0
1687381497.2223628,3.90625,88.8671875,62.5,95.703125,0.0
1687381497.2263186,125.9765625,101.07421875,73.73046875,107.91015625,0.0
1687381497.2302234,248.046875,90.8203125,72.265625,113.28125,0.0
1687381497.2341282,84.47265625,56.640625,48.33984375,69.82421875,0.0
1687381497.238033,-53.22265625,45.41015625,30.76171875,24.4140625,0.0
1687381497.2419379,35.64453125,63.96484375,44.43359375,60.05859375,0.0
1687381497.2458427,193.359375,76.171875,64.94140625,94.7265625,0.0
1687381497.2497473,140.13671875,79.1015625,58.10546875,82.03125,0.0
1687381497.253652,-25.390625,74.70703125,50.78125,64.453125,0.0
1687381497.257557,11.23046875,71.77734375,62.01171875,89.84375,0.0
1687381497.2614617,144.53125,58.59375,52.734375,94.23828125,0.0
1687381497.2653666,149.90234375,31.73828125,17.578125,56.640625,0.0
1687381497.2692714,-57.12890625,0.0,-17.578125,0.48828125,0.0
1687381497.2732208,-92.28515625,-19.53125,-32.71484375,-14.6484375,0.0
1687381497.2771256,22.4609375,-32.71484375,-43.9453125,-5.859375,0.0
1687381497.2810304,99.609375,-43.9453125,-57.6171875,-8.30078125,0.0
1687381497.2849352,-71.77734375,-53.7109375,-72.265625,-42.96875,0.0
1687381497.28884,-161.62109375,-56.640625,-88.8671875,-55.6640625,0.0
1687381497.2927446,-61.5234375,-61.03515625,-89.84375,-47.8515625,0.0
1687381497.2966495,71.2890625,-81.54296875,-96.19140625,-35.15625,0.0
1687381497.3005543,-44.921875,-96.19140625,-114.74609375,-44.921875,0.0
1687381497.304459,-186.03515625,-95.703125,-118.1640625,-83.0078125,0.0
1687381497.308364,-124.51171875,-88.8671875,-111.328125,-80.078125,0.0
1687381497.3122687,25.390625,-90.8203125,-113.28125,-59.08203125,0.0
1687381497.3161736,-5.859375,-96.6796875,-125.0,-61.03515625,0.0
1687381497.3201168,-182.12890625,-95.21484375,-127.44140625,-84.47265625,0.0
1687381497.3240216,-160.15625,-96.19140625,-125.48828125,-91.796875,0.0
1687381497.3279264,-23.92578125,-100.5859375,-137.20703125,-76.66015625,0.0
1687381497.3318312,27.34375,-97.65625,-145.99609375,-78.61328125,0.0
1687381497.335736,-135.25390625,-97.65625,-141.11328125,-89.35546875,0.0
1687381497.3396409,-169.921875,-101.07421875,-137.6953125,-83.984375,0.0
1687381497.3435457,-53.22265625,-100.09765625,-137.6953125,-67.87109375,0.0
1687381497.3474505,61.03515625,-101.07421875,-132.32421875,-55.6640625,0.0
1687381497.351355,-96.6796875,-106.4453125,-131.8359375,-72.265625,0.0
1687381497.35526,-203.125,-106.93359375,-131.8359375,-95.703125,0.0
1687381497.3591647,-102.5390625,-99.12109375,-131.8359375,-80.56640625,0.0
1687381497.3630695,46.38671875,-94.7265625,-134.765625,-40.0390625,0.0
1687381497.367007,-42.48046875,-96.6796875,-138.18359375,-44.43359375,0.0
1687381497.3709118,-199.21875,-97.16796875,-137.20703125,-93.75,0.0
1687381497.3748167,-139.6484375,-93.75,-127.44140625,-91.796875,0.0
1687381497.3787212,17.578125,-94.23828125,-126.953125,-56.15234375,0.0
1687381497.382626,9.765625,-95.21484375,-143.06640625,-74.70703125,0.0
1687381497.3865309,-166.50390625,-95.703125,-144.53125,-93.75,0.0
1687381497.3904357,-161.62109375,-92.7734375,-136.71875,-85.9375,0.0
1687381497.3943405,-26.85546875,-87.890625,-132.8125,-67.87109375,0.0
1687381497.3982453,48.828125,-88.37890625,-128.90625,-55.17578125,0.0
1687381497.4021502,-119.62890625,-89.35546875,-125.48828125,-79.1015625,0.0
1687381497.406055,-178.22265625,-88.37890625,-113.76953125,-83.49609375,0.0
1687381497.4099596,-56.640625,-82.03125,-105.95703125,-59.5703125,0.0
1687381497.413891,70.80078125,-81.0546875,-113.76953125,-48.33984375,0.0
1687381497.417796,-62.01171875,-78.125,-116.2109375,-72.265625,0.0
1687381497.4217005,-169.921875,-78.125,-108.3984375,-96.19140625,0.0
1687381497.4256053,-96.6796875,-88.8671875,-111.328125,-91.30859375,0.0
1687381497.42951,46.38671875,-89.84375,-112.3046875,-59.08203125,0.0
1687381497.433415,-17.08984375,-81.54296875,-117.1875,-49.31640625,0.0
1687381497.4373198,-175.29296875,-74.21875,-113.76953125,-58.59375,0.0
1687381497.4412246,-127.9296875,-80.078125,-106.4453125,-64.94140625,0.0
1687381497.4451294,18.06640625,-82.51953125,-119.140625,-61.5234375,0.0
1687381497.4490342,44.921875,-75.68359375,-120.60546875,-44.43359375,0.0
1687381497.4529388,-125.9765625,-70.80078125,-107.421875,-65.91796875,0.0
1687381497.4568436,-132.32421875,-62.98828125,-112.3046875,-65.91796875,0.0
1687381497.4607694,-4.8828125,-63.96484375,-121.58203125,-35.64453125,0.0
1687381497.4646742,82.03125,-70.3125,-109.375,-12.20703125,0.0
1687381497.468579,-77.63671875,-69.3359375,-96.19140625,-39.55078125,0.0
1687381497.4724839,-159.1796875,-71.2890625,-105.95703125,-75.68359375,0.0
1687381497.4763887,-53.7109375,-71.2890625,-116.69921875,-69.82421875,0.0
1687381497.4802935,95.21484375,-67.3828125,-111.328125,-36.1328125,0.0
1687381497.4841983,-23.4375,-63.4765625,-107.91015625,-54.19921875,0.0
1687381497.4881032,-162.109375,-64.453125,-106.4453125,-71.77734375,0.0
1687381497.492008,-85.44921875,-65.91796875,-95.703125,-48.33984375,0.0
1687381497.4959126,77.1484375,-55.6640625,-86.42578125,-29.296875,0.0
1687381497.4998174,50.29296875,-38.0859375,-85.44921875,-22.4609375,0.0
1687381497.5037222,-131.34765625,-38.57421875,-86.42578125,-34.1796875,0.0
1687381497.5076902,-110.3515625,-48.33984375,-82.03125,-27.34375,0.0
1687381497.511595,30.76171875,-55.17578125,-75.1953125,-3.90625,0.0
1687381497.5154998,74.21875,-54.19921875,-79.58984375,1.953125,0.0
1687381497.5194046,-95.21484375,-43.45703125,-77.1484375,-9.27734375,0.0
1687381497.5233095,-129.39453125,-39.55078125,-65.4296875,-34.1796875,0.0
1687381497.527214,-12.6953125,-44.921875,-70.3125,-39.0625,0.0
1687381497.5311189,98.14453125,-51.7578125,-76.66015625,-25.390625,0.0
1687381497.5350237,-47.8515625,-53.7109375,-68.84765625,-36.1328125,0.0
1687381497.5389285,-152.34375,-58.59375,-76.66015625,-43.45703125,0.0
1687381497.5428333,-62.01171875,-61.5234375,-84.9609375,-32.71484375,0.0
1687381497.5467381,87.40234375,-58.59375,-68.359375,-10.25390625,0.0
1687381497.550643,-2.9296875,-54.6875,-55.17578125,-27.34375,0.0
1687381497.5546045,-161.62109375,-62.01171875,-62.98828125,-55.6640625,0.0
1687381497.5585093,-108.88671875,-71.77734375,-69.3359375,-49.31640625,0.0
1687381497.5624142,45.8984375,-65.91796875,-64.453125,-34.1796875,0.0
1687381497.566319,32.71484375,-65.4296875,-70.80078125,-41.50390625,0.0
1687381497.5702238,-145.01953125,-72.265625,-74.70703125,-46.875,0.0
1687381497.5741286,-126.46484375,-63.96484375,-71.2890625,-46.38671875,0.0
1687381497.5780332,14.6484375,-60.05859375,-64.453125,-44.921875,0.0
1687381497.581938,81.54296875,-62.5,-62.01171875,-31.73828125,0.0
1687381497.5858428,-90.33203125,-61.03515625,-74.21875,-52.24609375,0.0
1687381497.5897477,-142.08984375,-71.2890625,-84.47265625,-61.5234375,0.0
1687381497.5936525,-19.53125,-63.4765625,-75.1953125,-36.62109375,0.0
1687381497.5975573,109.86328125,-53.7109375,-63.4765625,-17.08984375,0.0
1687381497.6015146,-27.34375,-61.5234375,-70.80078125,-35.15625,0.0
1687381497.6054194,-144.04296875,-56.640625,-73.2421875,-51.7578125,0.0
1687381497.6093242,-63.96484375,-53.7109375,-64.94140625,-36.1328125,0.0
1687381497.613229,84.47265625,-55.17578125,-68.84765625,-20.01953125,0.0
1687381497.6171339,11.71875,-57.12890625,-77.63671875,-40.52734375,0.0
1687381497.6210387,-137.20703125,-38.0859375,-62.98828125,-34.66796875,0.0
1687381497.6249435,-69.82421875,-6.8359375,-37.109375,-11.71875,0.0
1687381497.628848,82.03125,-3.90625,-23.92578125,-3.90625,0.0
1687381497.632753,94.23828125,-18.06640625,-30.2734375,-0.9765625,0.0
1687381497.6366577,-93.75,-21.97265625,-39.0625,-30.76171875,0.0
1687381497.6405625,-90.33203125,-11.23046875,-34.1796875,-28.80859375,0.0
1687381497.6444674,50.78125,-1.953125,-35.64453125,7.8125,0.0
1687381497.6484187,127.9296875,-7.32421875,-35.64453125,17.08984375,0.0
1687381497.6523235,-48.33984375,-22.94921875,-35.64453125,-14.16015625,0.0
1687381497.6562283,-128.41796875,-37.109375,-39.55078125,-23.4375,0.0
1687381497.6601331,-17.08984375,-37.59765625,-32.2265625,-16.11328125,0.0
1687381497.664038,113.28125,-33.203125,-40.0390625,-10.25390625,0.0
1687381497.6679428,-24.90234375,-44.921875,-62.5,-32.71484375,0.0
1687381497.6718476,-158.69140625,-48.828125,-68.359375,-52.24609375,0.0
1687381497.6757522,-77.63671875,-42.96875,-62.98828125,-38.0859375,0.0
1687381497.679657,81.54296875,-49.8046875,-58.59375,-21.97265625,0.0
1687381497.6835618,29.78515625,-49.31640625,-54.6875,-26.85546875,0.0
1687381497.6874666,-148.92578125,-47.8515625,-57.6171875,-52.24609375,0.0
1687381497.6913714,-103.515625,-39.0625,-49.8046875,-44.43359375,0.0
1687381497.6953158,84.9609375,11.23046875,-5.37109375,20.5078125,0.0
1687381497.6992207,189.94140625,60.05859375,44.921875,82.51953125,0.0
1687381497.7031252,41.015625,81.0546875,75.68359375,92.28515625,0.0
1687381497.70703,19.53125,87.40234375,90.33203125,107.421875,0.0
1687381497.7109349,131.8359375,72.75390625,79.1015625,104.98046875,0.0
1687381497.7148397,210.44921875,51.26953125,43.9453125,84.47265625,0.0
1687381497.7187445,34.66796875,30.2734375,21.97265625,56.640625,0.0
1687381497.7226493,-82.51953125,0.9765625,14.6484375,36.1328125,0.0
1687381497.7265542,-15.13671875,-20.01953125,-15.625,3.41796875,0.0
1687381497.730459,127.9296875,-14.6484375,-25.390625,2.44140625,0.0
1687381497.7343638,41.50390625,-4.39453125,-13.18359375,6.8359375,0.0
1687381497.7382686,-116.2109375,-13.671875,-21.484375,-19.53125,0.0
1687381497.7422068,-63.96484375,-22.94921875,-25.87890625,-18.5546875,0.0
1687381497.7461116,85.9375,-16.11328125,-27.83203125,1.953125,0.0
1687381497.7500165,58.59375,-21.97265625,-27.34375,2.9296875,0.0
1687381497.7539213,-132.32421875,-39.0625,-36.62109375,-34.66796875,0.0
1687381497.7578259,-117.67578125,-38.57421875,-51.7578125,-47.36328125,0.0
1687381497.7617307,14.16015625,-46.38671875,-64.453125,-29.78515625,0.0
1687381497.7656355,83.0078125,-44.43359375,-61.03515625,-13.18359375,0.0
1687381497.7695403,-39.0625,-2.9296875,-12.20703125,18.06640625,0.0
1687381497.7734451,-49.31640625,39.0625,39.0625,38.0859375,0.0
1687381497.77735,88.8671875,59.08203125,56.15234375,65.91796875,0.0
1687381497.7812548,232.91015625,75.68359375,72.75390625,121.09375,0.0
1687381497.7851596,96.19140625,89.84375,86.42578125,116.2109375,0.0
1687381497.7890918,-20.5078125,78.61328125,76.171875,86.9140625,0.0
1687381497.7929966,66.89453125,75.1953125,67.3828125,83.49609375,0.0
1687381497.7969015,218.75,84.47265625,65.4296875,104.00390625,0.0
1687381497.8008063,138.18359375,88.37890625,68.84765625,106.93359375,0.0
1687381497.8047109,-22.4609375,88.8671875,70.3125,94.7265625,0.0
1687381497.8086157,32.71484375,85.44921875,68.359375,103.02734375,0.0
1687381497.8125205,183.59375,80.56640625,66.89453125,122.55859375,0.0
1687381497.8164253,189.453125,80.078125,69.3359375,110.83984375,0.0
1687381497.8203301,-1.953125,78.61328125,71.77734375,87.890625,0.0
1687381497.824235,-11.23046875,77.63671875,64.453125,89.84375,0.0
1687381497.8281398,125.9765625,75.1953125,63.96484375,96.19140625,0.0
1687381497.8320446,212.40234375,74.21875,60.05859375,98.6328125,0.0
1687381497.8359735,36.1328125,67.3828125,46.875,77.63671875,0.0
1687381497.8398783,-53.7109375,45.41015625,26.85546875,61.5234375,0.0
1687381497.8437831,44.43359375,30.2734375,11.23046875,51.7578125,0.0
1687381497.8476877,187.01171875,36.62109375,27.34375,58.59375,0.0
1687381497.8515925,61.03515625,39.55078125,26.85546875,41.9921875,0.0
1687381497.8554974,-80.078125,29.78515625,8.7890625,27.34375,0.0
1687381497.8594022,-7.8125,26.3671875,12.20703125,54.6875,0.0
1687381497.863307,150.390625,22.4609375,3.41796875,61.03515625,0.0
1687381497.8672118,81.54296875,9.27734375,-14.6484375,23.92578125,0.0
1687381497.8711166,-93.26171875,11.23046875,0.48828125,-0.48828125,0.0
1687381497.8750215,-32.71484375,20.5078125,27.83203125,22.94921875,0.0
1687381497.8789263,111.81640625,20.01953125,31.73828125,47.36328125,0.0
1687381497.882899,135.7421875,16.6015625,25.87890625,46.875,0.0
1687381497.8868039,-50.29296875,17.08984375,20.5078125,21.484375,0.0
1687381497.8907087,-70.80078125,15.13671875,11.71875,9.27734375,0.0
1687381497.8946135,62.5,11.23046875,19.04296875,28.80859375,0.0
1687381497.898518,163.0859375,9.27734375,22.94921875,50.78125,0.0
1687381497.902423,3.41796875,12.6953125,21.484375,36.1328125,0.0
1687381497.9063277,-90.33203125,9.27734375,29.296875,32.2265625,0.0
1687381497.9102325,9.27734375,4.39453125,21.97265625,43.45703125,0.0
1687381497.9141374,165.0390625,10.25390625,10.25390625,31.25,0.0
1687381497.9180422,46.875,7.32421875,11.23046875,19.53125,0.0
1687381497.921947,-112.79296875,7.32421875,12.20703125,5.859375,0.0
1687381497.9258518,-40.52734375,11.71875,15.625,17.578125,0.0
1687381497.9298177,116.69921875,7.32421875,14.6484375,37.109375,0.0
1687381497.9337223,86.9140625,3.41796875,4.39453125,28.80859375,0.0
1687381497.937627,-93.75,0.9765625,5.859375,10.25390625,0.0
1687381497.941532,-77.1484375,-4.8828125,0.0,7.32421875,0.0
1687381497.9454367,65.91796875,-6.8359375,-16.6015625,12.6953125,0.0
1687381497.9493415,125.9765625,-0.9765625,-10.7421875,27.83203125,0.0
1687381497.9532464,-49.8046875,-1.953125,0.9765625,16.11328125,0.0
1687381497.9571512,-84.47265625,-10.7421875,-2.9296875,3.90625,0.0
1687381497.961056,46.38671875,-2.44140625,-6.8359375,15.625,0.0
1687381497.9649608,163.0859375,4.8828125,0.9765625,26.85546875,0.0
1687381497.9688656,15.625,-10.7421875,2.44140625,13.671875,0.0
1687381497.9727705,-96.19140625,-13.671875,-2.9296875,7.8125,0.0
1687381497.976779,-12.20703125,-10.7421875,-6.8359375,18.5546875,0.0
1687381497.9806838,137.20703125,-12.20703125,-9.765625,27.83203125,0.0
1687381497.9845886,47.36328125,-11.23046875,-9.765625,17.08984375,0.0
1687381497.9884934,-115.72265625,-13.671875,-10.7421875,1.953125,0.0
1687381497.9923983,-62.5,-12.6953125,-22.4609375,-8.7890625,0.0
1687381497.996303,92.7734375,-13.18359375,-26.85546875,15.625,0.0
1687381498.000208,89.35546875,-18.5546875,-20.5078125,28.80859375,0.0
1687381498.0041127,-103.02734375,-20.5078125,-23.4375,-7.32421875,0.0
1687381498.0080175,-101.5625,-20.99609375,-30.2734375,-12.20703125,0.0
1687381498.0119224,44.43359375,-20.01953125,-29.78515625,-0.48828125,0.0
1687381498.0158272,126.46484375,-18.5546875,-31.73828125,8.7890625,0.0
1687381498.019732,-44.43359375,-16.11328125,-32.2265625,-17.578125,0.0
1687381498.0236862,-107.91015625,-20.01953125,-26.85546875,-28.80859375,0.0
1687381498.027591,4.8828125,-18.06640625,-24.4140625,-19.53125,0.0
1687381498.0314958,134.27734375,-11.71875,-31.73828125,0.0,0.0
1687381498.0354006,-1.953125,-12.20703125,-36.1328125,-2.9296875,0.0
1687381498.0393054,-126.953125,-14.16015625,-40.0390625,-17.578125,0.0
1687381498.04321,-44.921875,-12.20703125,-42.96875,-4.8828125,0.0
1687381498.0471148,109.86328125,-7.8125,-38.0859375,7.8125,0.0
1687381498.0510197,42.48046875,-15.13671875,-43.45703125,1.953125,0.0
1687381498.0549245,-130.859375,-21.484375,-43.45703125,-6.34765625,0.0
1687381498.0588293,-85.44921875,-19.53125,-38.0859375,-7.8125,0.0
1687381498.0627341,62.98828125,-20.5078125,-39.55078125,-7.8125,0.0
1687381498.066639,95.703125,-21.484375,-41.50390625,9.765625,0.0
1687381498.0705907,-82.03125,-24.4140625,-50.29296875,-13.18359375,0.0
1687381498.0744956,-100.09765625,-22.94921875,-50.78125,-41.015625,0.0
1687381498.0784004,24.90234375,-20.99609375,-52.734375,-11.71875,0.0
1687381498.0823052,119.62890625,-24.4140625,-59.5703125,7.8125,0.0
1687381498.08621,-31.73828125,-22.94921875,-65.4296875,-11.71875,0.0
1687381498.0901148,-110.3515625,-19.53125,-64.94140625,-27.83203125,0.0
1687381498.0940197,-15.13671875,-23.92578125,-59.08203125,-12.20703125,0.0
1687381498.0979245,130.37109375,-22.94921875,-61.5234375,15.13671875,0.0
1687381498.1018293,18.06640625,-19.04296875,-66.89453125,-11.71875,0.0
1687381498.105734,-126.46484375,-28.3203125,-68.359375,-39.0625,0.0
1687381498.109639,-55.6640625,-37.59765625,-65.91796875,-20.99609375,0.0
1687381498.1135437,100.5859375,-37.59765625,-58.10546875,-1.46484375,0.0
1687381498.1174843,72.75390625,-31.25,-51.7578125,-6.34765625,0.0
1687381498.1213892,-113.76953125,-31.25,-52.734375,-26.85546875,0.0
1687381498.125294,-95.21484375,-27.34375,-43.9453125,-10.25390625,0.0
1687381498.1291988,49.31640625,-26.3671875,-40.52734375,7.8125,0.0
1687381498.1331036,94.7265625,-30.2734375,-56.640625,14.16015625,0.0
1687381498.1370084,-86.9140625,-33.203125,-63.96484375,-20.01953125,0.0
1687381498.1409132,-118.65234375,-31.25,-52.24609375,-32.71484375,0.0
1687381498.1448178,18.5546875,-29.78515625,-53.22265625,11.71875,0.0
1687381498.1487226,115.234375,-35.15625,-54.19921875,25.390625,0.0
1687381498.1526275,-46.38671875,-36.1328125,-48.828125,0.9765625,0.0
1687381498.1565323,-121.58203125,-29.296875,-42.96875,-5.37109375,0.0
1687381498.160437,-26.3671875,-24.4140625,-46.38671875,-1.953125,0.0
1687381498.1643715,117.67578125,-29.78515625,-59.5703125,11.23046875,0.0
1687381498.1682763,25.390625,-29.296875,-56.15234375,14.16015625,0.0
1687381498.1721811,-134.765625,-29.78515625,-51.26953125,-16.6015625,0.0
1687381498.176086,-86.42578125,-34.66796875,-51.7578125,-23.4375,0.0
1687381498.1799905,72.75390625,-31.25,-52.734375,-8.30078125,0.0
1687381498.1838953,66.40625,-28.80859375,-48.828125,-14.6484375,0.0
1687381498.1878002,-111.81640625,-26.3671875,-37.59765625,-30.2734375,0.0
1687381498.191705,-105.46875,-26.3671875,-40.0390625,-33.69140625,0.0
1687381498.1956098,27.34375,-26.85546875,-51.26953125,-15.625,0.0
1687381498.1995146,111.328125,-28.80859375,-46.38671875,-0.48828125,0.0
1687381498.2034194,-65.4296875,-38.0859375,-43.9453125,-39.0625,0.0
1687381498.2073243,-125.0,-37.59765625,-43.45703125,-43.45703125,0.0
1687381498.2112515,0.48828125,-28.80859375,-40.0390625,-33.203125,0.0
1687381498.2151563,134.27734375,-21.97265625,-40.0390625,-22.94921875,0.0
1687381498.2190611,-5.859375,-23.92578125,-35.15625,-20.99609375,0.0
1687381498.222966,-128.41796875,-27.34375,-32.71484375,-34.1796875,0.0
1687381498.2268708,-43.9453125,-20.01953125,-33.69140625,-17.578125,0.0
1687381498.2307756,107.91015625,-17.578125,-34.1796875,-2.44140625,0.0
1687381498.2346804,41.015625,-15.13671875,-31.73828125,-13.671875,0.0
1687381498.2385852,-127.44140625,-19.53125,-27.34375,-33.203125,0.0
1687381498.24249,-82.51953125,-22.4609375,-22.94921875,-29.78515625,0.0
1687381498.2463946,65.4296875,-24.90234375,-18.5546875,4.39453125,0.0
1687381498.2502995,81.54296875,-31.25,-25.390625,2.9296875,0.0
1687381498.2542043,-107.421875,-34.66796875,-35.15625,-38.0859375,0.0
1687381498.258176,-121.58203125,-33.69140625,-41.015625,-44.921875,0.0
1687381498.262081,18.5546875,-33.203125,-44.921875,-17.08984375,0.0
1687381498.2659857,115.234375,-38.57421875,-44.43359375,8.30078125,0.0
1687381498.2698905,-53.22265625,-36.1328125,-50.29296875,-25.390625,0.0
1687381498.2737954,-139.6484375,-41.9921875,-49.31640625,-55.6640625,0.0
1687381498.2777002,-36.1328125,-51.7578125,-43.45703125,-26.85546875,0.0
1687381498.281605,112.79296875,-47.36328125,-46.38671875,-6.8359375,0.0
1687381498.2855098,1.46484375,-42.96875,-40.52734375,-22.94921875,0.0
1687381498.2894146,-138.18359375,-42.96875,-42.48046875,-25.87890625,0.0
1687381498.2933192,-71.2890625,-44.43359375,-49.8046875,-23.4375,0.0
1687381498.297224,85.44921875,-37.109375,-36.62109375,-2.44140625,0.0
1687381498.3011289,43.9453125,-35.64453125,-35.64453125,-3.41796875,0.0
1687381498.3050954,-139.16015625,-44.921875,-44.921875,-31.73828125,0.0
1687381498.3090003,-107.91015625,-44.43359375,-39.55078125,-17.578125,0.0
1687381498.312905,41.015625,-41.015625,-36.62109375,-4.39453125,0.0
1687381498.31681,87.890625,-47.36328125,-33.203125,-4.39453125,0.0
1687381498.3207147,-88.8671875,-53.7109375,-39.55078125,-25.390625,0.0
1687381498.3246195,-114.74609375,-43.9453125,-50.29296875,-33.203125,0.0
1687381498.3285244,9.27734375,-41.9921875,-47.8515625,-15.625,0.0
1687381498.3324292,124.51171875,-38.57421875,-44.921875,-0.9765625,0.0
1687381498.336334,-18.06640625,-31.73828125,-43.45703125,4.8828125,0.0
1687381498.3402388,-127.44140625,-38.0859375,-42.96875,-13.18359375,0.0
1687381498.3441436,-41.015625,-37.59765625,-41.9921875,-25.87890625,0.0
1687381498.3480484,111.328125,-36.62109375,-49.8046875,-14.6484375,0.0
1687381498.3520072,6.34765625,-43.45703125,-53.7109375,-29.296875,0.0
1687381498.355912,-149.90234375,-45.41015625,-49.31640625,-35.64453125,0.0
1687381498.3598168,-87.40234375,-44.43359375,-47.8515625,-22.94921875,0.0
1687381498.3637216,66.40625,-45.8984375,-47.8515625,-5.37109375,0.0
1687381498.3676264,58.10546875,-46.38671875,-39.0625,-3.41796875,0.0
1687381498.371531,-126.46484375,-52.734375,-42.48046875,-33.203125,0.0
1687381498.3754358,-115.72265625,-53.7109375,-48.828125,-39.55078125,0.0
1687381498.3793406,30.2734375,-40.0390625,-41.015625,-10.7421875,0.0
1687381498.3832455,91.796875,-35.15625,-45.8984375,12.6953125,0.0
1687381498.3871503,-75.1953125,-32.71484375,-53.7109375,-9.27734375,0.0
1687381498.391055,-119.140625,-28.80859375,-52.24609375,-29.78515625,0.0
1687381498.39496,-4.39453125,-34.1796875,-52.24609375,-24.4140625,0.0
1687381498.3989117,124.51171875,-36.1328125,-55.6640625,-5.37109375,0.0
1687381498.4028165,-15.13671875,-35.15625,-58.10546875,-13.18359375,0.0
1687381498.4067214,-128.41796875,-33.203125,-57.6171875,-23.4375,0.0
1687381498.4106262,-44.921875,-30.76171875,-49.8046875,-20.01953125,0.0
1687381498.414531,104.4921875,-39.55078125,-51.7578125,-11.23046875,0.0
1687381498.4184358,30.76171875,-46.875,-61.03515625,-5.37109375,0.0
1687381498.4223406,-132.8125,-39.0625,-58.59375,-20.99609375,0.0
1687381498.4262455,-87.890625,-38.0859375,-57.12890625,-27.83203125,0.0
1687381498.4301503,59.5703125,-47.36328125,-62.5,-20.99609375,0.0
1687381498.434055,74.70703125,-49.8046875,-55.6640625,-14.6484375,0.0
1687381498.43796,-106.4453125,-41.015625,-39.55078125,-13.671875,0.0
1687381498.4418647,-110.3515625,-38.57421875,-31.73828125,-7.32421875,0.0
1687381498.4458115,18.5546875,-40.52734375,-39.0625,-14.6484375,0.0
1687381498.4497163,102.5390625,-34.66796875,-33.203125,-14.6484375,0.0
1687381498.4536211,-60.546875,-39.0625,-30.2734375,-37.109375,0.0
1687381498.457526,-136.23046875,-43.9453125,-41.50390625,-41.015625,0.0
1687381498.4614308,-32.71484375,-39.0625,-39.0625,-31.73828125,0.0
1687381498.4653356,106.4453125,-36.1328125,-35.64453125,-13.671875,0.0
1687381498.4692404,-19.04296875,-31.25,-36.62109375,-21.484375,0.0
1687381498.4731452,-158.203125,-38.57421875,-41.50390625,-44.43359375,0.0
1687381498.47705,-82.51953125,-41.9921875,-43.9453125,-26.3671875,0.0
1687381498.480955,80.078125,-41.015625,-41.9921875,-1.953125,0.0
1687381498.4848597,28.80859375,-37.59765625,-43.9453125,-5.859375,0.0
1687381498.4887645,-150.390625,-37.59765625,-50.29296875,-30.76171875,0.0
1687381498.4927044,-107.421875,-46.875,-55.6640625,-55.17578125,0.0
1687381498.4966092,45.8984375,-42.96875,-47.8515625,-49.31640625,0.0
1687381498.500514,90.8203125,-33.203125,-36.62109375,-19.04296875,0.0
1687381498.5044188,-87.40234375,-34.1796875,-37.109375,-37.59765625,0.0
1687381498.5083237,-110.83984375,-35.64453125,-35.64453125,-45.8984375,0.0
1687381498.5122285,16.6015625,-37.59765625,-38.0859375,-20.01953125,0.0
1687381498.5161333,125.48828125,-35.64453125,-42.96875,-1.46484375,0.0
1687381498.5200381,-33.69140625,-35.64453125,-40.52734375,-10.7421875,0.0
1687381498.523943,-132.8125,-32.2265625,-41.50390625,-31.25,0.0
1687381498.5278478,-28.80859375,-34.66796875,-44.43359375,-27.83203125,0.0
1687381498.5317526,119.62890625,-36.62109375,-42.96875,-11.71875,0.0
1687381498.5356574,6.34765625,-33.69140625,-28.80859375,-19.53125,0.0
1687381498.5395908,-148.92578125,-40.0390625,-30.76171875,-32.71484375,0.0
1687381498.5434957,-90.8203125,-41.9921875,-51.7578125,-44.43359375,0.0
1687381498.5474005,68.359375,-38.0859375,-58.10546875,-41.50390625,0.0
1687381498.5513053,50.29296875,-33.69140625,-57.6171875,-25.390625,0.0
1687381498.55521,-134.765625,-38.0859375,-58.59375,-25.87890625,0.0
1687381498.559115,-107.91015625,-36.62109375,-58.10546875,-23.92578125,0.0
1687381498.5630198,38.0859375,-26.85546875,-52.24609375,-10.25390625,0.0
1687381498.5669246,95.21484375,-28.3203125,-47.36328125,-2.44140625,0.0
1687381498.5708294,-83.49609375,-32.2265625,-47.8515625,-41.015625,0.0
1687381498.5747342,-133.30078125,-32.71484375,-54.19921875,-51.7578125,0.0
1687381498.578639,-9.765625,-40.0390625,-61.03515625,-21.484375,0.0
1687381498.5825438,109.375,-43.45703125,-54.6875,8.30078125,0.0
1687381498.5864704,-41.015625,-39.0625,-50.29296875,-15.625,0.0
1687381498.5903752,-140.13671875,-38.57421875,-55.6640625,-45.8984375,0.0
1687381498.59428,-41.50390625,-35.15625,-45.8984375,-31.73828125,0.0
1687381498.5981848,120.1171875,-25.390625,-31.73828125,-5.859375,0.0
1687381498.6020896,43.45703125,-30.2734375,-36.1328125,-19.04296875,0.0
1687381498.6059945,-129.8828125,-36.1328125,-47.8515625,-34.1796875,0.0
1687381498.6098993,-80.56640625,-32.2265625,-43.9453125,-19.04296875,0.0
1687381498.613804,75.1953125,-40.52734375,-46.875,-20.01953125,0.0
1687381498.617709,78.61328125,-43.45703125,-52.734375,-21.97265625,0.0
1687381498.6216137,-112.3046875,-36.1328125,-55.6640625,-35.64453125,0.0
1687381498.6255186,-111.328125,-38.0859375,-61.03515625,-39.0625,0.0
1687381498.6294234,24.90234375,-38.57421875,-55.6640625,-20.99609375,0.0
1687381498.633392,100.5859375,-41.9921875,-57.12890625,-9.765625,0.0
1687381498.637297,-61.5234375,-42.48046875,-61.03515625,-29.78515625,0.0
1687381498.6412017,-120.1171875,-36.62109375,-62.5,-39.0625,0.0
1687381498.6451066,2.9296875,-35.64453125,-71.77734375,-21.97265625,0.0
1687381498.6490114,91.796875,-40.52734375,-79.1015625,-10.7421875,0.0
1687381498.6529162,-9.27734375,-37.109375,-81.54296875,-31.73828125,0.0
1687381498.656821,89.35546875,-25.87890625,-77.63671875,-20.5078125,0.0
1687381498.6607258,57.12890625,-27.34375,-81.0546875,-9.765625,0.0
1687381498.6646307,-122.0703125,-31.73828125,-87.890625,-24.4140625,0.0
1687381498.6685355,-84.47265625,-30.2734375,-87.890625,-20.99609375,0.0
1687381498.6724403,57.6171875,-34.1796875,-86.9140625,-5.37109375,0.0
1687381498.676345,84.47265625,-31.73828125,-83.49609375,-5.37109375,0.0
1687381498.680308,-100.09765625,-30.2734375,-75.1953125,-26.85546875,0.0
1687381498.684213,-118.65234375,-39.0625,-73.73046875,-41.50390625,0.0
1687381498.6881177,9.765625,-37.109375,-78.61328125,-29.78515625,0.0
1687381498.6920226,107.91015625,-30.76171875,-78.125,-2.9296875,0.0
1687381498.6959274,-55.6640625,-33.203125,-80.56640625,-32.71484375,0.0
1687381498.6998322,-145.99609375,-35.64453125,-81.54296875,-48.828125,0.0
1687381498.703737,-43.45703125,-36.1328125,-75.1953125,-24.4140625,0.0
1687381498.7076418,100.5859375,-37.59765625,-75.68359375,-6.8359375,0.0
1687381498.7115467,-12.20703125,-49.31640625,-76.171875,-32.2265625,0.0
1687381498.7154515,-153.3203125,-51.26953125,-70.80078125,-46.38671875,0.0
1687381498.7193563,-86.9140625,-46.875,-72.75390625,-34.66796875,0.0
1687381498.723261,70.80078125,-41.50390625,-73.2421875,-16.6015625,0.0
1687381498.7272172,52.24609375,-35.64453125,-71.2890625,-0.48828125,0.0
1687381498.731122,-125.0,-48.33984375,-72.75390625,-26.3671875,0.0
1687381498.7350268,-103.02734375,-49.31640625,-66.40625,-45.8984375,0.0
1687381498.7389317,42.48046875,-40.0390625,-54.6875,-37.109375,0.0
1687381498.7428365,97.16796875,-38.0859375,-47.36328125,-25.87890625,0.0
1687381498.7467413,-80.56640625,-42.96875,-49.31640625,-40.0390625,0.0
1687381498.750646,-123.53515625,-50.78125,-55.6640625,-26.3671875,0.0
1687381498.754551,5.37109375,-37.109375,-52.734375,-10.25390625,0.0
1687381498.7584558,127.44140625,-21.97265625,-47.8515625,-5.859375,0.0
1687381498.7623606,-18.5546875,-27.34375,-44.43359375,-9.765625,0.0
1687381498.7662654,-121.09375,-30.2734375,-37.109375,-38.57421875,0.0
1687381498.7701702,-22.4609375,-32.71484375,-32.71484375,-25.87890625,0.0
1687381498.7741702,135.25390625,-30.2734375,-33.203125,0.9765625,0.0
1687381498.778075,42.96875,-27.34375,-20.99609375,-1.953125,0.0
1687381498.7819798,-124.0234375,-35.15625,-23.92578125,-30.76171875,0.0
1687381498.7858846,-75.1953125,-38.0859375,-41.9921875,-46.875,0.0
1687381498.7897894,74.70703125,-37.59765625,-41.50390625,-23.4375,0.0
1687381498.7936943,63.96484375,-35.64453125,-42.48046875,-23.4375,0.0
1687381498.797599,-114.74609375,-34.66796875,-47.36328125,-44.921875,0.0
1687381498.801504,-95.21484375,-36.1328125,-43.45703125,-31.25,0.0
1687381498.8054087,43.9453125,-39.0625,-39.55078125,-7.8125,0.0
1687381498.8093135,114.74609375,-32.2265625,-37.109375,12.6953125,0.0
1687381498.8132184,-61.5234375,-32.71484375,-49.31640625,-6.34765625,0.0
1687381498.8171232,-128.90625,-46.38671875,-68.84765625,-28.3203125,0.0
1687381498.8211167,-16.6015625,-42.96875,-68.359375,-28.80859375,0.0
1687381498.8250215,111.81640625,-35.15625,-66.40625,-19.04296875,0.0
1687381498.8289263,-7.8125,-30.76171875,-57.6171875,-23.4375,0.0
1687381498.832831,-132.32421875,-30.2734375,-47.8515625,-47.8515625,0.0
1687381498.8367357,-50.78125,-29.296875,-52.24609375,-36.1328125,0.0
1687381498.8406405,113.28125,-26.85546875,-52.734375,3.41796875,0.0
1687381498.8445454,37.59765625,-31.25,-52.24609375,1.953125,0.0
1687381498.8484502,-130.37109375,-35.64453125,-65.4296875,-28.80859375,0.0
1687381498.852355,-88.37890625,-36.1328125,-72.265625,-34.1796875,0.0
1687381498.8562598,58.59375,-32.71484375,-61.03515625,-7.8125,0.0
1687381498.8601646,78.61328125,-30.76171875,-59.08203125,-14.16015625,0.0
1687381498.8640695,-103.515625,-34.1796875,-57.12890625,-45.41015625,0.0
1687381498.8680568,-111.81640625,-29.78515625,-45.41015625,-28.3203125,0.0
1687381498.8719616,11.23046875,-36.1328125,-53.22265625,-4.39453125,0.0
1687381498.8758664,97.16796875,-41.50390625,-59.5703125,-1.46484375,0.0
1687381498.8797712,-55.17578125,-39.55078125,-51.26953125,-41.9921875,0.0
1687381498.883676,-135.25390625,-53.7109375,-57.12890625,-58.59375,0.0
1687381498.8875809,-46.38671875,-67.3828125,-71.2890625,-61.5234375,0.0
1687381498.8914857,75.1953125,-74.21875,-82.51953125,-63.96484375,0.0
1687381498.8953905,-60.05859375,-87.40234375,-93.75,-63.96484375,0.0
1687381498.8992953,-194.82421875,-84.9609375,-93.26171875,-75.1953125,0.0
1687381498.9032001,-106.4453125,-72.265625,-83.984375,-75.1953125,0.0
1687381498.907105,61.5234375,-66.40625,-77.63671875,-54.19921875,0.0
1687381498.9110098,20.01953125,-69.3359375,-81.0546875,-56.15234375,0.0
1687381498.9149904,-158.203125,-70.3125,-85.9375,-71.77734375,0.0
1687381498.9188952,-125.9765625,-70.80078125,-85.9375,-59.5703125,0.0
1687381498.9228,18.5546875,-67.87109375,-87.890625,-45.8984375,0.0
1687381498.926705,65.4296875,-64.94140625,-84.9609375,-47.36328125,0.0
1687381498.9306097,-112.79296875,-65.91796875,-85.9375,-66.40625,0.0
1687381498.9345145,-147.4609375,-65.4296875,-93.75,-65.4296875,0.0
1687381498.9384193,-20.99609375,-62.5,-90.33203125,-50.29296875,0.0
1687381498.9423242,104.98046875,-52.24609375,-67.87109375,-23.4375,0.0
1687381498.946229,-33.69140625,-43.45703125,-61.5234375,-30.76171875,0.0
1687381498.9501338,-120.60546875,-41.50390625,-59.08203125,-37.109375,0.0
1687381498.9540386,-15.13671875,-32.2265625,-41.9921875,-24.4140625,0.0
1687381498.9579434,125.0,-21.97265625,-39.0625,-1.46484375,0.0
1687381498.961919,25.390625,-20.99609375,-44.921875,3.90625,0.0
1687381498.965824,-118.1640625,-20.5078125,-44.43359375,-19.53125,0.0
1687381498.9697287,-51.26953125,-18.06640625,-38.0859375,-12.20703125,0.0
1687381498.9736335,103.02734375,-15.13671875,-25.390625,19.04296875,0.0
1687381498.9775383,82.03125,-12.6953125,-19.53125,13.18359375,0.0
1687381498.9814432,-103.02734375,-13.18359375,-27.83203125,-15.13671875,0.0
1687381498.985348,-91.796875,-19.53125,-39.55078125,-10.7421875,0.0
1687381498.9892528,52.734375,-27.34375,-51.7578125,-11.71875,0.0
1687381498.9931576,114.74609375,-32.71484375,-49.31640625,-6.8359375,0.0
1687381498.9970624,-59.08203125,-28.3203125,-41.9921875,-11.23046875,0.0
1687381499.0009673,-99.609375,-26.3671875,-51.26953125,-19.53125,0.0
1687381499.004872,14.16015625,-28.80859375,-56.640625,-14.16015625,0.0
1687381499.0088415,122.0703125,-27.83203125,-49.31640625,-2.9296875,0.0
1687381499.0127463,-20.01953125,-28.3203125,-40.52734375,-12.6953125,0.0
1687381499.0166512,-118.65234375,-30.2734375,-40.0390625,-24.90234375,0.0
1687381499.020556,-35.64453125,-29.296875,-46.875,-23.92578125,0.0
1687381499.0244608,102.5390625,-24.4140625,-45.41015625,-7.32421875,0.0
1687381499.0283656,28.3203125,-24.90234375,-48.33984375,-9.765625,0.0
1687381499.0322704,-130.859375,-31.25,-53.22265625,-24.4140625,0.0
1687381499.0361753,-82.03125,-39.55078125,-51.26953125,-24.4140625,0.0
1687381499.04008,69.3359375,-34.66796875,-45.8984375,-3.90625,0.0
1687381499.043985,79.1015625,-28.80859375,-39.0625,-6.34765625,0.0
1687381499.0478897,-110.3515625,-38.0859375,-41.50390625,-38.57421875,0.0
1687381499.0517945,-110.3515625,-34.1796875,-40.0390625,-34.66796875,0.0
1687381499.0557573,29.296875,-28.3203125,-33.69140625,-27.34375,0.0
1687381499.059662,110.3515625,-32.71484375,-26.85546875,-9.765625,0.0
1687381499.063567,-54.6875,-41.015625,-29.78515625,-20.99609375,0.0
1687381499.0674717,-119.62890625,-37.59765625,-33.69140625,-35.64453125,0.0
1687381499.0713766,-5.859375,-28.3203125,-27.34375,-5.859375,0.0
1687381499.0752814,132.32421875,-29.78515625,-26.3671875,18.5546875,0.0
1687381499.0791862,13.18359375,-31.25,-30.2734375,10.7421875,0.0
1687381499.083091,-115.72265625,-33.203125,-24.4140625,-8.30078125,0.0
1687381499.086996,-40.0390625,-32.2265625,-21.97265625,-5.859375,0.0
1687381499.090901,108.3984375,-33.69140625,-22.94921875,1.953125,0.0
1687381499.0948057,62.98828125,-33.69140625,-16.6015625,-4.39453125,0.0
1687381499.0987105,-108.3984375,-36.1328125,-13.18359375,-10.25390625,0.0
1687381499.1026669,-90.8203125,-46.875,-26.85546875,-22.4609375,0.0
1687381499.1065717,54.19921875,-45.41015625,-39.0625,-1.46484375,0.0
1687381499.1104765,93.26171875,-37.59765625,-37.109375,0.48828125,0.0
1687381499.1143813,-83.0078125,-39.55078125,-41.50390625,-35.64453125,0.0
1687381499.1182861,-101.5625,-47.8515625,-38.0859375,-23.92578125,0.0
1687381499.122191,20.5078125,-45.8984375,-39.55078125,-14.16015625,0.0
1687381499.1260958,115.72265625,-35.64453125,-36.1328125,-2.9296875,0.0
1687381499.1300006,-39.0625,-36.1328125,-34.66796875,-21.97265625,0.0
1687381499.1339054,-124.51171875,-39.0625,-39.55078125,-43.9453125,0.0
1687381499.1378102,-24.4140625,-41.9921875,-42.96875,-9.27734375,0.0
1687381499.141715,105.46875,-51.26953125,-53.7109375,8.30078125,0.0
1687381499.1456199,0.48828125,-48.33984375,-52.734375,-12.6953125,0.0
1687381499.1495702,-135.25390625,-40.0390625,-45.8984375,-21.97265625,0.0
1687381499.153475,-81.54296875,-39.55078125,-46.38671875,-25.390625,0.0
1687381499.1573799,74.21875,-40.0390625,-44.921875,-5.859375,0.0
1687381499.1612847,52.24609375,-39.0625,-51.26953125,-5.859375,0.0
1687381499.1651895,-122.0703125,-41.9921875,-55.17578125,-39.0625,0.0
1687381499.1690943,-99.609375,-42.96875,-51.7578125,-29.296875,0.0
1687381499.1729991,38.0859375,-41.015625,-51.7578125,6.8359375,0.0
1687381499.176904,84.47265625,-38.57421875,-54.6875,3.41796875,0.0
1687381499.1808088,-81.54296875,-37.109375,-53.22265625,-20.01953125,0.0
1687381499.1847136,-111.81640625,-36.1328125,-47.8515625,-25.87890625,0.0
1687381499.1886184,0.48828125,-40.0390625,-54.6875,-18.5546875,0.0
1687381499.1925232,106.4453125,-43.45703125,-57.6171875,3.90625,0.0
1687381499.1965182,-24.4140625,-34.1796875,-53.22265625,-8.7890625,0.0
1687381499.200423,-125.9765625,-34.66796875,-58.59375,-28.3203125,0.0
1687381499.2043278,-54.6875,-44.921875,-64.453125,-31.25,0.0
1687381499.2082326,102.05078125,-39.55078125,-53.22265625,-13.18359375,0.0
1687381499.2121375,23.92578125,-31.73828125,-39.0625,2.9296875,0.0
1687381499.2160423,-132.32421875,-35.64453125,-38.0859375,-12.20703125,0.0
1687381499.219947,-81.0546875,-43.9453125,-41.9921875,-24.4140625,0.0
1687381499.223852,63.4765625,-44.43359375,-41.50390625,-19.04296875,0.0
1687381499.2277567,68.84765625,-37.109375,-37.109375,-6.34765625,0.0
1687381499.2316616,-107.421875,-37.59765625,-35.64453125,-17.08984375,0.0
1687381499.2355664,-108.88671875,-50.29296875,-49.31640625,-13.671875,0.0
1687381499.2394712,24.90234375,-51.7578125,-48.33984375,-6.34765625,0.0
1687381499.2435095,97.65625,-47.36328125,-40.52734375,-5.859375,0.0
1687381499.2474144,-74.70703125,-45.8984375,-53.7109375,-19.04296875,0.0
1687381499.2513192,-136.71875,-43.9453125,-62.01171875,-39.55078125,0.0
1687381499.255224,-22.4609375,-47.36328125,-49.8046875,-24.90234375,0.0
1687381499.2591288,99.12109375,-44.921875,-40.52734375,5.37109375,0.0
1687381499.2630336,-30.2734375,-39.0625,-43.9453125,-22.94921875,0.0
1687381499.2669384,-141.6015625,-37.59765625,-51.26953125,-53.7109375,0.0
1687381499.2708433,-68.359375,-41.015625,-57.12890625,-44.921875,0.0
1687381499.274748,71.77734375,-48.828125,-62.98828125,-23.92578125,0.0
1687381499.278653,15.13671875,-47.8515625,-67.87109375,-20.01953125,0.0
1687381499.2825577,-143.06640625,-45.41015625,-66.89453125,-43.9453125,0.0
1687381499.2864625,-107.421875,-47.8515625,-64.94140625,-41.50390625,0.0
1687381499.2904534,33.203125,-45.41015625,-60.05859375,-20.01953125,0.0
1687381499.2943583,57.6171875,-38.57421875,-47.8515625,-19.04296875,0.0
1687381499.298263,-122.55859375,-45.8984375,-47.8515625,-49.31640625,0.0
1687381499.302168,-130.37109375,-46.875,-64.94140625,-49.8046875,0.0
1687381499.3060727,0.48828125,-41.50390625,-67.3828125,-34.66796875,0.0
1687381499.3099775,95.21484375,-39.0625,-54.6875,-23.92578125,0.0
1687381499.3138824,-57.12890625,-39.55078125,-53.22265625,-41.9921875,0.0
1687381499.3177872,-136.71875,-41.50390625,-57.6171875,-55.17578125,0.0
1687381499.321692,-32.71484375,-37.109375,-42.96875,-36.1328125,0.0
1687381499.3255968,118.1640625,-33.203125,-30.2734375,-19.53125,0.0
1687381499.3295016,11.71875,-35.64453125,-43.45703125,-32.2265625,0.0
1687381499.3334067,-137.20703125,-41.015625,-57.12890625,-43.9453125,0.0
1687381499.3373833,-70.80078125,-44.43359375,-57.12890625,-36.1328125,0.0
1687381499.3412883,94.7265625,-35.64453125,-53.7109375,-10.7421875,0.0
1687381499.3451931,59.08203125,-31.25,-45.41015625,4.39453125,0.0
1687381499.349098,-122.55859375,-37.59765625,-42.48046875,-19.53125,0.0
1687381499.3530028,-86.42578125,-31.73828125,-41.015625,-32.2265625,0.0
1687381499.3569076,58.59375,-24.90234375,-35.64453125,-11.23046875,0.0
1687381499.3608124,101.07421875,-31.73828125,-48.33984375,-1.46484375,0.0
1687381499.3647172,-86.42578125,-41.50390625,-62.98828125,-27.83203125,0.0
1687381499.368622,-119.140625,-37.59765625,-59.5703125,-33.203125,0.0
1687381499.372527,15.625,-34.1796875,-59.5703125,-15.13671875,0.0
1687381499.3764317,122.0703125,-35.15625,-55.6640625,-11.23046875,0.0
1687381499.3803365,-30.76171875,-34.1796875,-47.8515625,-28.80859375,0.0
1687381499.3843052,-129.39453125,-33.69140625,-44.921875,-29.78515625,0.0
1687381499.38821,-42.96875,-34.1796875,-50.78125,-23.92578125,0.0
1687381499.3921149,103.02734375,-37.109375,-47.36328125,-15.625,0.0
1687381499.3960197,17.578125,-36.62109375,-34.1796875,-18.06640625,0.0
1687381499.3999245,-134.27734375,-33.69140625,-35.15625,-29.296875,0.0
1687381499.4038296,-77.1484375,-32.2265625,-39.0625,-25.390625,0.0
1687381499.4077344,76.66015625,-29.296875,-25.390625,-16.11328125,0.0
1687381499.4116392,67.87109375,-30.2734375,-17.578125,-11.71875,0.0
1687381499.415544,-108.88671875,-30.76171875,-32.2265625,-31.73828125,0.0
1687381499.4194489,-95.21484375,-24.4140625,-42.96875,-25.87890625,0.0
1687381499.4233537,45.8984375,-28.3203125,-35.15625,-10.25390625,0.0
1687381499.4272585,109.86328125,-27.83203125,-29.296875,-9.765625,0.0
1687381499.4312186,-63.96484375,-27.83203125,-28.3203125,-14.16015625,0.0
1687381499.4351234,-108.88671875,-33.69140625,-36.62109375,-13.18359375,0.0
1687381499.4390283,5.859375,-32.2265625,-40.0390625,-11.71875,0.0
1687381499.442933,121.58203125,-29.78515625,-37.59765625,-1.46484375,0.0
1687381499.446838,-16.11328125,-26.85546875,-42.48046875,-14.16015625,0.0
1687381499.4507427,-121.58203125,-19.53125,-34.66796875,-35.64453125,0.0
1687381499.4546478,-37.109375,-26.3671875,-25.87890625,-29.296875,0.0
1687381499.4585526,110.83984375,-29.296875,-27.83203125,-2.9296875,0.0
1687381499.4624574,49.8046875,-21.97265625,-24.90234375,-9.27734375,0.0
1687381499.4663622,-101.5625,-25.87890625,-15.625,-7.8125,0.0
1687381499.470267,-62.01171875,-32.71484375,-14.6484375,-0.48828125,0.0
1687381499.4741719,71.2890625,-32.2265625,-28.80859375,14.16015625,0.0
1687381499.4781256,85.44921875,-30.2734375,-36.62109375,18.5546875,0.0
1687381499.4820304,-87.890625,-24.90234375,-38.57421875,-14.16015625,0.0
1687381499.4859352,-101.5625,-23.4375,-38.57421875,-14.6484375,0.0
1687381499.48984,26.85546875,-31.25,-34.66796875,9.765625,0.0
1687381499.4937449,114.2578125,-32.2265625,-27.83203125,18.5546875,0.0
1687381499.4976497,-49.8046875,-28.80859375,-25.390625,-2.44140625,0.0
1687381499.5015545,-111.81640625,-29.296875,-28.80859375,-7.8125,0.0
1687381499.5054593,-3.90625,-29.78515625,-35.15625,0.0,0.0
1687381499.5093641,122.0703125,-28.3203125,-36.1328125,7.32421875,0.0
1687381499.513269,-0.48828125,-30.2734375,-38.0859375,-5.859375,0.0
1687381499.5171738,-141.11328125,-33.203125,-48.33984375,-20.5078125,0.0
1687381499.5210788,-62.01171875,-25.390625,-47.36328125,-11.23046875,0.0
1687381499.5250278,101.5625,-23.92578125,-31.25,1.46484375,0.0
1687381499.5289326,44.43359375,-30.2734375,-27.83203125,-6.34765625,0.0
1687381499.5328374,-124.51171875,-26.85546875,-30.2734375,-22.4609375,0.0
1687381499.5367422,-89.84375,-30.2734375,-30.2734375,-28.3203125,0.0
1687381499.540647,47.36328125,-29.296875,-43.9453125,-24.90234375,0.0
1687381499.5445518,87.40234375,-26.3671875,-44.43359375,5.859375,0.0
1687381499.5484567,-81.54296875,-31.73828125,-40.0390625,-17.578125,0.0
1687381499.5523617,-96.6796875,-28.3203125,-35.64453125,-35.15625,0.0
1687381499.5562665,29.296875,-20.5078125,-24.4140625,-4.39453125,0.0
1687381499.5601714,119.62890625,-21.97265625,-34.1796875,6.8359375,0.0
1687381499.5640762,-23.4375,-25.87890625,-42.48046875,-4.8828125,0.0
1687381499.567981,-104.98046875,-26.3671875,-43.9453125,-25.87890625,0.0
1687381499.5719733,-17.578125,-29.296875,-48.33984375,-20.01953125,0.0
1687381499.5758781,117.1875,-27.83203125,-45.41015625,5.859375,0.0
1687381499.579783,8.7890625,-27.34375,-45.41015625,-7.32421875,0.0
1687381499.5836878,-131.34765625,-29.296875,-46.38671875,-31.25,0.0
1687381499.5875926,-69.3359375,-27.83203125,-43.9453125,-20.5078125,0.0
1687381499.5914974,75.68359375,-28.3203125,-54.19921875,-6.8359375,0.0
1687381499.5954022,55.6640625,-34.1796875,-53.7109375,-20.5078125,0.0
1687381499.5993073,-108.88671875,-32.2265625,-44.921875,-30.2734375,0.0
1687381499.603212,-86.42578125,-25.87890625,-53.7109375,-25.390625,0.0
1687381499.607117,52.24609375,-21.484375,-51.7578125,-6.34765625,0.0
1687381499.6110218,104.4921875,-26.3671875,-40.0390625,9.27734375,0.0
1687381499.6149266,-64.453125,-36.62109375,-34.1796875,-13.18359375,0.0
1687381499.6189122,-104.00390625,-30.76171875,-33.69140625,-29.78515625,0.0
1687381499.622817,3.41796875,-29.296875,-42.48046875,-17.08984375,0.0
1687381499.6267219,109.375,-34.66796875,-41.9921875,0.9765625,0.0
1687381499.6306267,-26.3671875,-34.66796875,-37.59765625,-20.01953125,0.0
1687381499.6345315,-126.46484375,-41.9921875,-47.8515625,-29.296875,0.0
1687381499.6384366,-45.41015625,-44.921875,-54.6875,-20.01953125,0.0
1687381499.6423414,96.6796875,-40.52734375,-44.921875,-13.18359375,0.0
1687381499.6462462,13.671875,-35.15625,-44.43359375,-20.01953125,0.0
1687381499.650151,-137.6953125,-34.66796875,-52.24609375,-34.1796875,0.0
1687381499.6540558,-86.42578125,-38.0859375,-50.78125,-25.390625,0.0
1687381499.6579607,51.26953125,-41.50390625,-43.45703125,-10.25390625,0.0
1687381499.6618655,56.15234375,-37.109375,-34.66796875,10.25390625,0.0
1687381499.6658459,-110.83984375,-39.0625,-38.57421875,-3.41796875,0.0
1687381499.6697507,-110.83984375,-43.45703125,-41.015625,-28.80859375,0.0
1687381499.6736555,26.85546875,-39.55078125,-34.1796875,-9.765625,0.0
1687381499.6775603,101.5625,-39.0625,-36.62109375,8.7890625,0.0
1687381499.6814651,-70.3125,-45.8984375,-46.38671875,-16.6015625,0.0
1687381499.68537,-127.44140625,-48.33984375,-54.6875,-32.2265625,0.0
1687381499.6892748,-13.18359375,-39.55078125,-47.36328125,-16.11328125,0.0
1687381499.6931796,116.69921875,-33.69140625,-29.296875,0.0,0.0
1687381499.6970844,-16.11328125,-35.15625,-36.62109375,-22.94921875,0.0
1687381499.7009895,-137.6953125,-33.69140625,-47.8515625,-42.48046875,0.0
1687381499.7048943,-55.6640625,-31.73828125,-42.96875,-43.45703125,0.0
1687381499.7087991,94.7265625,-39.0625,-39.0625,-16.6015625,0.0
1687381499.7127736,38.57421875,-36.62109375,-41.50390625,-4.39453125,0.0
1687381499.7166784,-124.0234375,-29.296875,-41.9921875,-20.5078125,0.0
1687381499.7205832,-89.84375,-32.71484375,-41.9921875,-22.4609375,0.0
1687381499.724488,48.33984375,-32.71484375,-50.78125,-5.859375,0.0
1687381499.7283928,73.73046875,-28.80859375,-50.29296875,-4.8828125,0.0
1687381499.7322977,-95.21484375,-26.3671875,-39.55078125,-28.3203125,0.0
1687381499.7362027,-105.95703125,-30.2734375,-34.66796875,-27.83203125,0.0
1687381499.7401075,16.6015625,-33.69140625,-33.69140625,-23.92578125,0.0
1687381499.7440124,101.07421875,-32.2265625,-38.0859375,-5.37109375,0.0
1687381499.7479172,-41.9921875,-26.3671875,-32.71484375,-12.6953125,0.0
1687381499.751822,-108.3984375,-25.390625,-33.69140625,-26.3671875,0.0
1687381499.7557268,-10.25390625,-32.71484375,-43.45703125,-21.484375,0.0
1687381499.759693,119.140625,-41.50390625,-51.26953125,0.9765625,0.0
1687381499.7635977,7.32421875,-43.45703125,-50.29296875,8.30078125,0.0
1687381499.7675025,-117.67578125,-32.2265625,-37.109375,-23.4375,0.0
1687381499.7714074,-45.41015625,-32.2265625,-47.36328125,-24.90234375,0.0
1687381499.7753122,106.93359375,-32.71484375,-50.29296875,4.39453125,0.0
1687381499.779217,68.359375,-28.3203125,-42.48046875,-9.765625,0.0
1687381499.783122,-113.28125,-31.25,-39.0625,-35.64453125,0.0
1687381499.787027,-93.75,-28.80859375,-40.0390625,-14.16015625,0.0
1687381499.7909317,46.875,-30.76171875,-39.55078125,14.16015625,0.0
1687381499.7948365,89.84375,-34.66796875,-36.1328125,11.23046875,0.0
1687381499.7987413,-86.42578125,-36.62109375,-33.69140625,-21.97265625,0.0
1687381499.8026462,-117.67578125,-42.48046875,-32.2265625,-26.85546875,0.0
1687381499.8066058,3.41796875,-42.96875,-40.52734375,-7.8125,0.0
1687381499.8105106,106.4453125,-39.55078125,-34.1796875,-4.8828125,0.0
1687381499.8144155,-47.36328125,-44.43359375,-33.203125,-25.87890625,0.0
1687381499.8183203,-142.578125,-57.6171875,-45.8984375,-28.3203125,0.0
1687381499.822225,-40.0390625,-60.546875,-41.9921875,-20.99609375,0.0
1687381499.82613,97.16796875,-52.24609375,-37.109375,-21.97265625,0.0
1687381499.8300347,-9.765625,-47.36328125,-48.33984375,-33.69140625,0.0
1687381499.8339396,-152.83203125,-44.43359375,-52.24609375,-49.31640625,0.0
1687381499.8378446,-85.9375,-41.9921875,-51.26953125,-52.734375,0.0
1687381499.8417494,63.96484375,-42.48046875,-58.10546875,-28.80859375,0.0
1687381499.8456542,47.8515625,-49.31640625,-58.10546875,-30.2734375,0.0
1687381499.849559,-127.9296875,-49.8046875,-67.3828125,-51.7578125,0.0
1687381499.8535116,-109.86328125,-40.0390625,-72.75390625,-41.015625,0.0
1687381499.8574164,20.01953125,-44.921875,-60.05859375,-34.1796875,0.0
1687381499.8613212,84.9609375,-45.8984375,-50.29296875,-22.94921875,0.0
1687381499.865226,-74.70703125,-42.96875,-50.29296875,-27.83203125,0.0
1687381499.8691308,-125.48828125,-46.875,-55.17578125,-44.921875,0.0
1687381499.8730357,-11.23046875,-57.12890625,-59.5703125,-50.29296875,0.0
1687381499.8769405,102.5390625,-56.15234375,-57.6171875,-17.08984375,0.0
1687381499.8808453,-26.85546875,-44.43359375,-50.78125,-9.765625,0.0
1687381499.8847504,-135.25390625,-38.0859375,-52.24609375,-41.9921875,0.0
1687381499.8886552,-57.6171875,-33.203125,-61.5234375,-43.9453125,0.0
1687381499.89256,98.6328125,-32.71484375,-63.96484375,-4.39453125,0.0
1687381499.8964648,21.97265625,-39.0625,-72.265625,-3.41796875,0.0
1687381499.9004126,-141.6015625,-44.921875,-67.87109375,-36.62109375,0.0
1687381499.9043174,-90.8203125,-37.59765625,-51.7578125,-23.4375,0.0
1687381499.9082222,55.17578125,-38.57421875,-49.8046875,-11.23046875,0.0
1687381499.9121273,67.3828125,-40.52734375,-39.55078125,-4.8828125,0.0
1687381499.916032,-103.515625,-33.203125,-37.109375,-19.53125,0.0
1687381499.919937,-106.93359375,-36.1328125,-58.10546875,-45.8984375,0.0
1687381499.9238417,27.83203125,-43.9453125,-58.10546875,-22.94921875,0.0
1687381499.9277465,111.81640625,-41.50390625,-45.41015625,14.6484375,0.0
1687381499.9316514,-51.7578125,-35.15625,-49.8046875,2.44140625,0.0
1687381499.9355562,-114.74609375,-27.83203125,-49.31640625,-13.671875,0.0
1687381499.939461,-5.859375,-21.97265625,-31.73828125,2.44140625,0.0
1687381499.9433658,122.0703125,-19.04296875,-31.25,17.578125,0.0
1687381499.9473572,0.9765625,-16.6015625,-41.015625,-8.7890625,0.0
1687381499.951262,-118.1640625,-20.01953125,-38.0859375,-33.203125,0.0
1687381499.9551668,-43.45703125,-30.76171875,-41.50390625,-19.53125,0.0
1687381499.9590716,102.05078125,-28.80859375,-45.41015625,1.46484375,0.0
1687381499.9629765,51.26953125,-27.83203125,-48.828125,-15.13671875,0.0
1687381499.9668813,-116.2109375,-33.69140625,-49.31640625,-30.76171875,0.0
1687381499.970786,-83.0078125,-30.2734375,-46.875,-12.20703125,0.0
1687381499.9746912,64.94140625,-30.76171875,-43.9453125,4.39453125,0.0
1687381499.978596,104.98046875,-33.69140625,-52.734375,9.765625,0.0
1687381499.9825008,-71.77734375,-35.15625,-62.98828125,-8.30078125,0.0
1687381499.9864056,-98.14453125,-39.55078125,-57.6171875,-13.18359375,0.0
1687381499.9903104,27.34375,-36.1328125,-40.52734375,-7.32421875,0.0
1687381499.9942951,128.41796875,-31.25,-36.62109375,10.7421875,0.0
1687381499.9982,-27.34375,-33.203125,-47.8515625,-0.48828125,0.0
1687381500.0021048,-115.234375,-39.0625,-54.19921875,-29.296875,0.0
1687381500.0060096,-9.765625,-41.50390625,-50.29296875,-9.27734375,0.0
1687381500.0099144,117.67578125,-40.0390625,-48.33984375,13.18359375,0.0
1687381500.0138192,3.90625,-42.48046875,-58.10546875,-16.6015625,0.0
1687381500.017724,-130.859375,-45.41015625,-56.15234375,-39.55078125,0.0
1687381500.0216289,-74.70703125,-44.921875,-53.7109375,-24.90234375,0.0
1687381500.025534,72.265625,-47.36328125,-65.91796875,-10.7421875,0.0
1687381500.0294387,46.38671875,-45.41015625,-66.89453125,-11.71875,0.0
1687381500.0333436,-117.67578125,-37.109375,-57.6171875,-24.4140625,0.0
1687381500.0372484,-88.8671875,-32.2265625,-50.78125,-33.203125,0.0
1687381500.0412264,48.33984375,-32.2265625,-43.9453125,-3.90625,0.0
1687381500.0451314,92.28515625,-34.1796875,-46.875,22.94921875,0.0
1687381500.0490363,-79.1015625,-29.296875,-55.17578125,-23.4375,0.0
1687381500.052941,-106.93359375,-30.2734375,-54.19921875,-55.17578125,0.0
1687381500.056846,10.25390625,-33.69140625,-48.828125,-23.4375,0.0
1687381500.0607507,113.28125,-27.34375,-48.828125,3.41796875,0.0
1687381500.0646555,-26.85546875,-28.3203125,-50.29296875,-13.671875,0.0
1687381500.0685604,-118.1640625,-26.3671875,-45.8984375,-22.94921875,0.0
1687381500.0724652,-32.71484375,-25.390625,-45.8984375,-11.71875,0.0
1687381500.07637,104.00390625,-35.15625,-51.7578125,-5.37109375,0.0
1687381500.080275,21.484375,-34.1796875,-55.6640625,-0.48828125,0.0
1687381500.0841799,-122.0703125,-34.1796875,-53.7109375,-20.5078125,0.0
1687381500.0881515,-64.453125,-36.1328125,-42.48046875,-32.2265625,0.0
1687381500.0920563,81.0546875,-27.34375,-32.2265625,-13.671875,0.0
1687381500.095961,74.21875,-23.4375,-24.4140625,-0.9765625,0.0
1687381500.099866,-105.46875,-32.71484375,-30.2734375,-22.94921875,0.0
1687381500.1037707,-95.21484375,-36.1328125,-39.55078125,-23.4375,0.0
1687381500.1076756,50.29296875,-26.85546875,-38.0859375,2.44140625,0.0
1687381500.1115804,113.28125,-26.3671875,-40.52734375,0.0,0.0
1687381500.1154852,-52.734375,-26.3671875,-37.109375,-19.04296875,0.0
1687381500.1193902,-105.46875,-30.76171875,-23.4375,-21.97265625,0.0
1687381500.123295,-8.30078125,-42.48046875,-33.203125,-8.30078125,0.0
1687381500.1272,107.421875,-51.26953125,-51.26953125,-9.765625,0.0
1687381500.1311047,-26.3671875,-55.17578125,-51.7578125,-39.55078125,0.0
1687381500.13507,-146.97265625,-52.24609375,-56.15234375,-57.12890625,0.0
1687381500.138975,-71.77734375,-59.5703125,-55.6640625,-39.55078125,0.0
1687381500.1428797,63.4765625,-68.84765625,-55.17578125,-15.13671875,0.0
1687381500.1467845,-16.6015625,-78.125,-58.59375,-44.921875,0.0
1687381500.1506896,-166.50390625,-79.1015625,-54.6875,-61.5234375,0.0
1687381500.1545944,-105.95703125,-70.80078125,-45.41015625,-45.8984375,0.0
1687381500.1584992,41.9921875,-65.4296875,-33.69140625,-44.921875,0.0
1687381500.162404,59.08203125,-56.640625,-24.90234375,-22.4609375,0.0
1687381500.1663089,-121.09375,-55.6640625,-30.76171875,-31.25,0.0
1687381500.1702137,-125.9765625,-61.03515625,-36.1328125,-43.45703125,0.0
1687381500.1741185,-7.8125,-62.98828125,-42.48046875,-38.0859375,0.0
1687381500.1780233,67.3828125,-63.96484375,-45.41015625,-33.69140625,0.0
1687381500.1819851,-69.3359375,-48.828125,-32.71484375,-37.59765625,0.0
1687381500.18589,-140.625,-51.7578125,-38.57421875,-45.8984375,0.0
1687381500.189795,-47.8515625,-64.453125,-36.1328125,-55.17578125,0.0
1687381500.1936998,87.40234375,-56.15234375,-19.04296875,-25.390625,0.0
1687381500.1976047,-15.625,-42.96875,-15.625,-6.8359375,0.0
1687381500.2015095,-128.90625,-35.15625,-15.625,-31.25,0.0
1687381500.2054143,-60.05859375,-31.25,-18.06640625,-22.4609375,0.0
1687381500.209319,98.6328125,-30.2734375,-20.5078125,12.6953125,0.0
1687381500.213224,59.5703125,-25.390625,-13.671875,12.20703125,0.0
1687381500.2171288,-114.74609375,-22.94921875,-13.671875,-11.71875,0.0
1687381500.2210338,-83.49609375,-32.2265625,-24.90234375,-16.6015625,0.0
1687381500.2249386,62.98828125,-36.1328125,-22.94921875,3.41796875,0.0
1687381500.22889,105.95703125,-23.92578125,-12.6953125,11.71875,0.0
1687381500.2327948,-67.87109375,-19.04296875,-12.6953125,9.765625,0.0
1687381500.2366998,-92.7734375,-21.97265625,-20.99609375,12.20703125,0.0
1687381500.2406046,28.80859375,-25.390625,-36.1328125,-4.39453125,0.0
1687381500.2445095,133.30078125,-28.80859375,-40.0390625,20.99609375,0.0
1687381500.2484143,-12.20703125,-25.390625,-30.2734375,1.953125,0.0
1687381500.252319,-100.5859375,-19.04296875,-27.83203125,-34.1796875,0.0
1687381500.256224,-5.859375,-23.4375,-29.78515625,8.7890625,0.0
1687381500.2601287,117.67578125,-48.33984375,-44.921875,15.13671875,0.0
1687381500.2640336,0.48828125,-63.96484375,-54.6875,-23.92578125,0.0
1687381500.2679386,-132.8125,-49.31640625,-46.875,-32.2265625,0.0
1687381500.2718434,-73.2421875,-44.43359375,-52.734375,-22.94921875,0.0
1687381500.27579,64.453125,-63.4765625,-65.4296875,-25.390625,0.0
1687381500.2796948,28.3203125,-73.2421875,-82.51953125,-52.24609375,0.0
1687381500.2835996,-166.9921875,-85.9375,-98.14453125,-78.125,0.0
1687381500.2875044,-162.59765625,-106.93359375,-110.3515625,-81.0546875,0.0
1687381500.2914095,-37.109375,-117.1875,-121.09375,-81.54296875,0.0
1687381500.2953143,34.1796875,-101.5625,-99.12109375,-61.03515625,0.0
1687381500.2992191,-112.79296875,-75.68359375,-68.359375,-36.62109375,0.0
1687381500.303124,-142.578125,-62.5,-62.01171875,-45.41015625,0.0
1687381500.3070288,-14.6484375,-49.8046875,-44.921875,-40.52734375,0.0
1687381500.3109336,108.88671875,-42.96875,-34.66796875,-9.27734375,0.0
1687381500.3148384,-24.90234375,-37.59765625,-30.2734375,-9.27734375,0.0
1687381500.3187432,-125.48828125,-32.2265625,-29.296875,-12.20703125,0.0
1687381500.3227339,-43.45703125,-29.78515625,-35.64453125,-11.23046875,0.0
1687381500.3266387,112.3046875,-21.97265625,-27.83203125,-4.39453125,0.0
1687381500.3305435,39.0625,-16.6015625,-13.18359375,-2.9296875,0.0
1687381500.3344483,-126.953125,-20.99609375,-19.53125,-25.87890625,0.0
1687381500.3383532,-69.3359375,-20.99609375,-25.87890625,-23.4375,0.0
1687381500.342258,80.56640625,-17.08984375,-18.06640625,8.30078125,0.0
1687381500.346163,79.1015625,-13.671875,-10.25390625,9.27734375,0.0
1687381500.3500679,-99.609375,-14.6484375,-15.625,-15.625,0.0
1687381500.3539727,-97.65625,-22.94921875,-29.296875,-19.53125,0.0
1687381500.3578775,33.203125,-26.3671875,-25.390625,10.7421875,0.0
1687381500.3617823,104.98046875,-22.94921875,-17.578125,17.578125,0.0
1687381500.3656871,-58.59375,-24.90234375,-13.671875,-14.16015625,0.0
1687381500.3696713,-124.51171875,-29.296875,-21.484375,-25.390625,0.0
1687381500.3735762,-11.23046875,-28.80859375,-27.34375,-16.11328125,0.0
1687381500.377481,128.41796875,-22.4609375,-19.04296875,-3.90625,0.0
1687381500.3813858,-3.41796875,-22.94921875,-17.08984375,-18.06640625,0.0
1687381500.3852906,-125.0,-22.94921875,-26.85546875,-20.99609375,0.0
1687381500.3891954,-47.36328125,-23.4375,-32.71484375,-17.578125,0.0
1687381500.3931003,92.7734375,-25.87890625,-35.15625,-3.41796875,0.0
1687381500.3970053,35.15625,-23.92578125,-41.015625,-18.5546875,0.0
1687381500.4009101,-113.28125,-23.92578125,-33.203125,-36.62109375,0.0
1687381500.404815,-77.1484375,-31.25,-29.296875,-18.06640625,0.0
1687381500.4087198,49.8046875,-37.109375,-40.52734375,-12.6953125,0.0
1687381500.4126246,81.54296875,-32.71484375,-43.9453125,-24.4140625,0.0
1687381500.4166021,-88.8671875,-29.78515625,-39.55078125,-44.921875,0.0
1687381500.420507,-116.2109375,-31.73828125,-32.2265625,-37.59765625,0.0
1687381500.4244118,10.25390625,-28.80859375,-28.3203125,-18.5546875,0.0
1687381500.4283168,108.3984375,-24.4140625,-32.71484375,-21.484375,0.0
1687381500.4322217,-43.9453125,-29.296875,-41.9921875,-26.85546875,0.0
1687381500.4361265,-119.62890625,-31.25,-32.71484375,-20.5078125,0.0
1687381500.4400313,-11.23046875,-29.296875,-20.01953125,-10.7421875,0.0
1687381500.443936,118.1640625,-29.78515625,-33.203125,9.765625,0.0
1687381500.447841,-3.41796875,-29.78515625,-41.50390625,2.44140625,0.0
1687381500.4517457,-130.859375,-32.2265625,-27.83203125,-31.25,0.0
1687381500.4556508,-67.87109375,-38.57421875,-23.92578125,-27.34375,0.0
1687381500.4595556,79.1015625,-39.55078125,-26.85546875,0.48828125,0.0
1687381500.4635267,54.19921875,-35.15625,-23.92578125,0.9765625,0.0
1687381500.4674315,-118.65234375,-35.15625,-26.3671875,-10.7421875,0.0
1687381500.4713364,-100.09765625,-37.59765625,-11.71875,-14.6484375,0.0
1687381500.4752412,45.8984375,-38.0859375,-7.32421875,-4.39453125,0.0
1687381500.479146,85.9375,-38.57421875,-27.34375,1.953125,0.0
1687381500.4830508,-87.40234375,-39.55078125,-37.109375,-12.6953125,0.0
1687381500.486956,-123.53515625,-39.55078125,-40.0390625,-20.99609375,0.0
1687381500.4908607,3.90625,-30.2734375,-40.0390625,-9.765625,0.0
1687381500.4947655,118.1640625,-23.4375,-43.45703125,6.34765625,0.0
1687381500.4986703,-35.64453125,-21.97265625,-39.0625,-13.671875,0.0
1687381500.5025752,-121.09375,-25.390625,-23.4375,-17.08984375,0.0
1687381500.50648,-27.34375,-30.2734375,-30.2734375,0.48828125,0.0
1687381500.5104446,108.3984375,-23.4375,-39.55078125,10.7421875,0.0
1687381500.5143495,18.06640625,-20.01953125,-32.2265625,-6.8359375,0.0
1687381500.5182543,-127.44140625,-24.90234375,-48.828125,-34.1796875,0.0
1687381500.522159,-70.80078125,-27.83203125,-53.22265625,-14.16015625,0.0
1687381500.526064,83.0078125,-23.92578125,-35.64453125,6.34765625,0.0
1687381500.529969,64.94140625,-28.80859375,-36.1328125,-3.41796875,0.0
1687381500.5338738,-120.1171875,-30.2734375,-43.45703125,-20.5078125,0.0
1687381500.5377786,-109.375,-23.92578125,-42.96875,-28.80859375,0.0
1687381500.5416834,23.4375,-24.4140625,-40.0390625,-15.625,0.0
1687381500.5455883,86.42578125,-25.390625,-36.1328125,-3.41796875,0.0
1687381500.549493,-78.125,-25.87890625,-30.2734375,-20.01953125,0.0
1687381500.553398,-122.0703125,-26.85546875,-36.62109375,-38.0859375,0.0
1687381500.5573559,-0.48828125,-25.390625,-40.0390625,-27.34375,0.0
1687381500.5612607,117.67578125,-24.4140625,-36.1328125,-6.34765625,0.0
1687381500.5651655,-19.53125,-25.87890625,-54.6875,-24.4140625,0.0
1687381500.5690703,-141.11328125,-28.80859375,-63.4765625,-61.03515625,0.0
1687381500.5729752,-55.6640625,-24.90234375,-56.15234375,-45.8984375,0.0
1687381500.57688,105.46875,-23.92578125,-55.17578125,-10.7421875,0.0
1687381500.5807848,25.390625,-25.390625,-55.17578125,-13.18359375,0.0
1687381500.5846899,-132.8125,-22.94921875,-55.6640625,-45.41015625,0.0
1687381500.5885947,-89.35546875,-23.92578125,-56.15234375,-46.38671875,0.0
1687381500.5924995,48.828125,-20.99609375,-56.15234375,-18.5546875,0.0
1687381500.5964043,55.6640625,-19.53125,-60.546875,-28.3203125,0.0
1687381500.6003091,-110.83984375,-26.85546875,-55.6640625,-45.8984375,0.0
1687381500.6042604,-107.421875,-23.4375,-55.17578125,-54.6875,0.0
1687381500.6081653,17.08984375,-18.06640625,-51.7578125,-33.203125,0.0
1687381500.61207,82.03125,-23.92578125,-52.24609375,-16.11328125,0.0
1687381500.615975,-82.51953125,-25.390625,-62.98828125,-48.828125,0.0
1687381500.6198797,-139.6484375,-16.6015625,-59.5703125,-67.3828125,0.0
1687381500.6237848,-52.734375,-13.671875,-60.05859375,-68.84765625,0.0
1687381500.6276896,60.546875,-20.01953125,-70.3125,-55.17578125,0.0
1687381500.6315944,-64.453125,-14.6484375,-79.58984375,-83.984375,0.0
1687381500.6354992,-186.5234375,0.9765625,-88.8671875,-113.28125,0.0
1687381500.639404,-117.67578125,9.27734375,-97.65625,-110.83984375,0.0
1687381500.6433089,8.30078125,8.7890625,-107.421875,-106.93359375,0.0
1687381500.6472137,-56.640625,7.8125,-108.3984375,-122.55859375,0.0
1687381500.6511595,-225.5859375,11.71875,-109.86328125,-131.34765625,0.0
1687381500.6550646,-206.54296875,15.13671875,-130.859375,-148.92578125,0.0
1687381500.6589694,-86.9140625,15.13671875,-130.859375,-149.4140625,0.0
1687381500.6628742,-62.01171875,16.6015625,-114.2578125,-146.97265625,0.0
1687381500.666779,-245.1171875,20.5078125,-116.2109375,-179.6875,0.0
1687381500.6706839,-270.01953125,25.390625,-118.1640625,-177.734375,0.0
1687381500.6745887,-151.85546875,18.5546875,-116.69921875,-175.78125,0.0
1687381500.6784937,-64.453125,17.578125,-107.91015625,-179.6875,0.0
1687381500.6823986,-210.44921875,22.4609375,-99.609375,-184.5703125,0.0
1687381500.6863034,-297.8515625,22.4609375,-105.46875,-187.01171875,0.0
1687381500.6902082,-204.58984375,23.4375,-109.86328125,-190.91796875,0.0
1687381500.694113,-62.98828125,20.01953125,-101.07421875,-178.7109375,0.0
1687381500.6981032,-170.8984375,17.578125,-97.65625,-181.640625,0.0
1687381500.702008,-297.8515625,21.97265625,-101.5625,-197.265625,0.0
1687381500.7059128,-225.09765625,20.01953125,-98.14453125,-187.01171875,0.0
1687381500.709818,-73.2421875,12.6953125,-104.00390625,-159.66796875,0.0
1687381500.7137227,-87.40234375,5.859375,-104.4921875,-150.87890625,0.0
1687381500.7176275,-231.93359375,4.8828125,-102.5390625,-154.296875,0.0
1687381500.7215323,-187.98828125,-5.859375,-101.5625,-134.27734375,0.0
1687381500.7254372,-46.38671875,-17.578125,-106.4453125,-122.0703125,0.0
1687381500.729342,7.8125,-21.97265625,-108.88671875,-100.5859375,0.0
1687381500.733247,-138.671875,-32.2265625,-101.5625,-73.73046875,0.0
1687381500.7371519,-146.97265625,-33.203125,-103.515625,-63.4765625,0.0
1687381500.7410567,-10.7421875,-35.15625,-106.93359375,-36.62109375,0.0
1687381500.7450929,118.1640625,-41.015625,-104.98046875,-3.41796875,0.0
1687381500.7489977,-14.6484375,-36.62109375,-110.3515625,-17.578125,0.0
1687381500.7529025,-104.4921875,-41.015625,-114.74609375,-13.18359375,0.0
1687381500.7568073,-9.27734375,-52.24609375,-112.79296875,4.8828125,0.0
1687381500.7607121,141.6015625,-56.15234375,-108.3984375,27.34375,0.0
1687381500.7646172,65.91796875,-57.12890625,-97.16796875,28.80859375,0.0
1687381500.768522,-72.75390625,-55.17578125,-85.44921875,18.5546875,0.0
1687381500.7724268,-15.625,-61.03515625,-80.078125,32.2265625,0.0
1687381500.7763317,128.41796875,-71.2890625,-86.42578125,50.78125,0.0
1687381500.7802365,130.859375,-72.75390625,-91.796875,62.5,0.0
1687381500.7841415,-28.80859375,-66.89453125,-82.51953125,61.03515625,0.0
1687381500.7880464,-16.11328125,-64.94140625,-86.42578125,51.26953125,0.0
1687381500.7920234,115.234375,-63.4765625,-92.28515625,53.7109375,0.0
1687381500.7959282,186.03515625,-61.03515625,-81.0546875,76.171875,0.0
1687381500.799833,21.97265625,-58.59375,-74.70703125,62.01171875,0.0
1687381500.803738,-28.3203125,-60.546875,-70.80078125,51.26953125,0.0
1687381500.807643,97.16796875,-54.6875,-57.12890625,73.73046875,0.0
1687381500.8115478,220.21484375,-46.38671875,-44.921875,95.703125,0.0
1687381500.8154526,81.0546875,-50.78125,-49.8046875,84.47265625,0.0
1687381500.8193574,-34.1796875,-51.26953125,-49.8046875,57.6171875,0.0
1687381500.8232625,40.0390625,-54.19921875,-51.7578125,64.94140625,0.0
1687381500.8271673,178.22265625,-51.26953125,-58.10546875,94.23828125,0.0
1687381500.831072,108.88671875,-48.33984375,-56.15234375,83.0078125,0.0
1687381500.834977,-52.734375,-56.640625,-60.546875,43.9453125,0.0
1687381500.8389466,-6.34765625,-55.17578125,-55.17578125,49.31640625,0.0
1687381500.8428516,138.18359375,-52.734375,-39.0625,62.01171875,0.0
1687381500.8467565,150.390625,-61.03515625,-35.64453125,62.01171875,0.0
1687381500.8506613,-29.296875,-64.453125,-40.52734375,50.78125,0.0
1687381500.854566,-37.109375,-62.5,-40.52734375,52.24609375,0.0
1687381500.858471,89.84375,-57.6171875,-43.45703125,62.98828125,0.0
1687381500.862376,168.45703125,-53.22265625,-52.24609375,68.359375,0.0
1687381500.8662808,8.7890625,-47.8515625,-52.24609375,51.26953125,0.0
1687381500.8701856,-59.08203125,-47.36328125,-42.48046875,47.36328125,0.0
1687381500.8740904,58.10546875,-41.9921875,-32.2265625,57.6171875,0.0
1687381500.8779953,186.5234375,-41.50390625,-42.96875,67.3828125,0.0
1687381500.8819,56.640625,-51.7578125,-50.78125,42.48046875,0.0
1687381500.8858635,-67.3828125,-58.59375,-42.48046875,15.13671875,0.0
1687381500.8897684,0.48828125,-58.10546875,-43.9453125,28.80859375,0.0
1687381500.8936732,149.90234375,-45.41015625,-39.0625,54.6875,0.0
1687381500.8975782,111.81640625,-39.0625,-26.85546875,62.5,0.0
1687381500.901483,-61.5234375,-45.41015625,-32.71484375,43.45703125,0.0
1687381500.9053879,-38.57421875,-45.41015625,-40.0390625,30.76171875,0.0
1687381500.9092927,98.14453125,-47.8515625,-28.80859375,38.57421875,0.0
1687381500.9131975,135.25390625,-54.6875,-25.390625,33.203125,0.0
1687381500.9171026,-34.66796875,-49.8046875,-25.87890625,25.390625,0.0
1687381500.9210074,-58.10546875,-41.9921875,-12.20703125,19.04296875,0.0
1687381500.9249122,53.7109375,-41.9921875,-9.765625,13.18359375,0.0
1687381500.928817,147.94921875,-41.9921875,-17.578125,39.0625,0.0
1687381500.932776,0.9765625,-39.55078125,-18.06640625,26.3671875,0.0
1687381500.9366808,-88.37890625,-33.203125,-17.578125,5.859375,0.0
1687381500.9405856,7.32421875,-28.3203125,-16.6015625,16.6015625,0.0
1687381500.9444907,143.5546875,-27.83203125,-10.25390625,39.0625,0.0
1687381500.9483955,44.43359375,-32.2265625,-13.671875,20.5078125,0.0
1687381500.9523003,-98.6328125,-40.52734375,-27.34375,-9.765625,0.0
1687381500.9562051,-38.57421875,-38.0859375,-25.87890625,4.8828125,0.0
1687381500.96011,105.95703125,-36.62109375,-27.34375,26.3671875,0.0
1687381500.9640148,73.2421875,-39.55078125,-38.0859375,8.30078125,0.0
1687381500.9679198,-90.8203125,-41.015625,-40.0390625,-12.6953125,0.0
1687381500.9718246,-70.3125,-45.8984375,-35.15625,-5.37109375,0.0
1687381500.9757295,60.05859375,-44.43359375,-21.97265625,13.18359375,0.0
1687381500.9796798,108.3984375,-43.9453125,-30.2734375,24.4140625,0.0
1687381500.9835846,-52.734375,-43.45703125,-41.50390625,10.25390625,0.0
1687381500.9874897,-88.8671875,-36.1328125,-39.55078125,7.8125,0.0
1687381500.9913945,23.4375,-37.59765625,-41.9921875,-1.46484375,0.0
1687381500.9952993,127.44140625,-46.38671875,-41.50390625,8.7890625,0.0
1687381500.9992042,-25.87890625,-50.29296875,-45.41015625,-2.9296875,0.0
1687381501.003109,-127.44140625,-53.22265625,-41.50390625,-8.7890625,0.0
1687381501.007014,-40.52734375,-52.734375,-32.71484375,8.30078125,0.0
1687381501.0109189,104.00390625,-46.875,-39.0625,19.04296875,0.0
1687381501.0148237,25.390625,-46.875,-51.26953125,-7.32421875,0.0
1687381501.0187285,-129.39453125,-52.734375,-53.22265625,-27.83203125,0.0
1687381501.0226333,-81.54296875,-52.24609375,-44.43359375,-7.8125,0.0
1687381501.0265787,71.77734375,-50.29296875,-41.015625,-4.39453125,0.0
1687381501.0304835,80.56640625,-45.41015625,-39.55078125,-2.9296875,0.0
1687381501.0343883,-99.609375,-38.0859375,-33.203125,-9.765625,0.0
1687381501.0382934,-99.609375,-42.48046875,-33.203125,-24.4140625,0.0
1687381501.0421982,41.50390625,-47.8515625,-41.015625,-18.5546875,0.0
1687381501.046103,117.1875,-43.45703125,-47.36328125,-11.23046875,0.0
1687381501.0500078,-55.6640625,-38.57421875,-52.734375,-22.4609375,0.0
1687381501.0539126,-115.72265625,-39.0625,-53.7109375,-20.99609375,0.0
1687381501.0578177,-2.9296875,-45.41015625,-59.5703125,-16.11328125,0.0
1687381501.0617225,128.41796875,-40.52734375,-57.6171875,9.765625,0.0
1687381501.0656273,-3.90625,-43.45703125,-48.828125,10.25390625,0.0
1687381501.0695322,-117.67578125,-41.50390625,-48.828125,8.7890625,0.0
1687381501.0735214,-31.25,-40.52734375,-49.31640625,7.8125,0.0
1687381501.0774262,113.76953125,-42.96875,-51.26953125,-7.32421875,0.0
1687381501.081331,53.7109375,-33.203125,-51.26953125,-11.23046875,0.0
1687381501.085236,-111.81640625,-37.59765625,-52.24609375,-21.97265625,0.0
1687381501.089141,-75.1953125,-39.0625,-49.31640625,-12.6953125,0.0
1687381501.0930457,79.1015625,-33.69140625,-30.76171875,10.25390625,0.0
1687381501.0969505,89.84375,-43.45703125,-30.2734375,11.23046875,0.0
1687381501.1008556,-99.609375,-51.26953125,-38.0859375,-26.3671875,0.0
1687381501.1047604,-105.46875,-47.36328125,-37.109375,-30.76171875,0.0
1687381501.1086652,15.625,-42.48046875,-44.43359375,-14.6484375,0.0
1687381501.11257,104.4921875,-37.109375,-44.921875,-0.48828125,0.0
1687381501.1164749,-53.7109375,-36.1328125,-38.57421875,-2.44140625,0.0
1687381501.120458,-125.9765625,-35.15625,-30.76171875,-14.6484375,0.0
1687381501.1243627,-17.578125,-37.59765625,-27.34375,-30.2734375,0.0
1687381501.1282678,123.53515625,-38.0859375,-37.109375,-4.8828125,0.0
1687381501.1321726,3.90625,-31.73828125,-43.9453125,4.8828125,0.0
1687381501.1360774,-127.9296875,-30.76171875,-40.0390625,-22.4609375,0.0
1687381501.1399822,-59.5703125,-34.1796875,-42.96875,-36.1328125,0.0
1687381501.143887,86.9140625,-32.71484375,-40.52734375,-4.39453125,0.0
1687381501.147792,43.45703125,-29.78515625,-38.57421875,-5.859375,0.0
1687381501.151697,-125.0,-31.25,-37.59765625,-39.0625,0.0
1687381501.1556017,-86.42578125,-36.1328125,-31.25,-23.92578125,0.0
1687381501.1595066,49.31640625,-32.71484375,-34.1796875,-5.859375,0.0
1687381501.1634114,93.75,-29.78515625,-34.1796875,7.32421875,0.0
1687381501.1673875,-83.49609375,-37.59765625,-38.0859375,-34.66796875,0.0
1687381501.1712923,-113.76953125,-32.71484375,-39.0625,-45.8984375,0.0
1687381501.1751974,12.20703125,-32.2265625,-43.45703125,-7.32421875,0.0
1687381501.1791022,107.91015625,-39.0625,-49.8046875,0.48828125,0.0
1687381501.183007,-47.8515625,-40.0390625,-47.36328125,-33.203125,0.0
1687381501.1869118,-143.06640625,-45.8984375,-50.78125,-53.22265625,0.0
1687381501.1908166,-51.26953125,-45.8984375,-53.7109375,-43.9453125,0.0
1687381501.1947217,92.7734375,-45.8984375,-51.7578125,-26.3671875,0.0
1687381501.1986265,0.9765625,-44.921875,-50.29296875,-16.11328125,0.0
1687381501.2025313,-140.625,-40.0390625,-56.15234375,-29.296875,0.0
1687381501.2064362,-81.0546875,-39.0625,-60.05859375,-35.15625,0.0
1687381501.210341,67.3828125,-37.59765625,-52.24609375,-1.953125,0.0
1687381501.2143102,49.31640625,-43.45703125,-58.10546875,-5.859375,0.0
1687381501.218215,-124.51171875,-44.921875,-66.40625,-50.29296875,0.0
1687381501.2221198,-107.421875,-38.57421875,-62.01171875,-50.78125,0.0
1687381501.2260246,35.15625,-39.55078125,-59.08203125,-23.4375,0.0
1687381501.2299297,84.47265625,-39.55078125,-49.8046875,-19.04296875,0.0
