time,TP9,AF7,AF8,TP10,Right AUX
1686971425.5664768,23.4375,-47.36328125,-73.2421875,3.90625,0.0
1686971425.5703807,11.71875,-42.48046875,-63.96484375,12.20703125,0.0
1686971425.5742843,-44.921875,-36.1328125,7.8125,-18.5546875,0.0
1686971425.5781882,-41.9921875,-27.83203125,-10.25390625,-25.390625,0.0
1686971425.582092,-6.34765625,-29.296875,-51.7578125,-12.20703125,0.0
1686971425.585996,-0.9765625,-34.66796875,-36.1328125,-19.53125,0.0
1686971425.5898995,-53.22265625,-36.1328125,-51.26953125,-24.4140625,0.0
1686971425.5938034,-47.36328125,-32.2265625,-87.890625,-18.5546875,0.0
1686971425.5977073,-11.71875,-48.828125,-60.546875,-9.27734375,0.0
1686971425.6016111,6.34765625,-55.17578125,12.6953125,1.953125,0.0
1686971425.6055148,-30.2734375,-29.78515625,6.34765625,-9.765625,0.0
1686971425.6094186,-43.45703125,-41.50390625,-74.70703125,-18.06640625,0.0
1686971425.6133606,-13.671875,-54.19921875,-148.4375,-3.90625,0.0
1686971425.6172645,18.06640625,-21.97265625,27.34375,3.90625,0.0
1686971425.6211681,-13.18359375,-12.20703125,37.109375,-7.8125,0.0
1686971425.625072,-44.43359375,-17.578125,-82.03125,-12.6953125,0.0
1686971425.6289759,-6.8359375,-9.765625,3.90625,-6.34765625,0.0
1686971425.6328797,24.90234375,-21.97265625,12.20703125,1.46484375,0.0
1686971425.6367834,13.671875,-46.38671875,-42.96875,6.8359375,0.0
1686971425.6406872,-47.8515625,-57.6171875,-79.1015625,-10.7421875,0.0
1686971425.644591,-47.36328125,-47.36328125,-53.22265625,-20.01953125,0.0
1686971425.648495,-6.8359375,-28.80859375,53.7109375,-14.16015625,0.0
1686971425.6523988,19.04296875,-20.01953125,70.80078125,-18.06640625,0.0
1686971425.6563025,-29.78515625,-31.73828125,-69.82421875,-23.4375,0.0
1686971425.6602402,-41.50390625,-37.109375,-53.22265625,-18.06640625,0.0
1686971425.664144,5.859375,-22.94921875,61.03515625,-7.32421875,0.0
1686971425.668048,27.83203125,-24.90234375,49.31640625,-2.9296875,0.0
1686971425.6719518,-19.53125,-35.64453125,-115.234375,-13.671875,0.0
1686971425.6758554,-50.29296875,-44.43359375,-83.0078125,-25.87890625,0.0
1686971425.6797593,-19.53125,-48.33984375,17.578125,-24.4140625,0.0
1686971425.6836631,21.484375,-37.109375,-3.90625,-7.8125,0.0
1686971425.687567,1.953125,-22.4609375,-69.82421875,6.34765625,0.0
1686971425.6914709,-47.8515625,-20.99609375,-20.99609375,-16.11328125,0.0
1686971425.6953745,-23.92578125,-18.06640625,68.359375,-23.4375,0.0
1686971425.6992784,35.64453125,-5.37109375,25.390625,0.0,0.0
1686971425.7031822,33.69140625,-5.37109375,-28.80859375,0.9765625,0.0
1686971425.7071178,-39.55078125,-41.9921875,-12.6953125,-25.390625,0.0
1686971425.7110214,-33.69140625,-83.49609375,26.85546875,-35.64453125,0.0
1686971425.7149253,4.8828125,-74.21875,-12.20703125,-25.390625,0.0
1686971425.7188292,16.11328125,-44.921875,-48.33984375,-19.53125,0.0
1686971425.722733,-35.15625,-24.90234375,-32.71484375,-29.296875,0.0
1686971425.726637,-52.734375,-13.18359375,-49.8046875,-35.15625,0.0
1686971425.7305405,-8.30078125,-12.20703125,-77.63671875,-20.01953125,0.0
1686971425.7344444,36.62109375,-21.484375,-66.40625,3.41796875,0.0
1686971425.7383482,1.46484375,-22.94921875,17.08984375,5.37109375,0.0
1686971425.742252,-33.203125,-21.484375,9.765625,0.0,0.0
1686971425.7461557,-13.671875,-39.0625,-53.22265625,-3.90625,0.0
1686971425.7500596,9.27734375,-53.7109375,-5.37109375,-12.20703125,0.0
1686971425.7539923,-6.8359375,-45.8984375,10.7421875,-6.34765625,0.0
1686971425.7578962,-46.875,-32.2265625,-70.80078125,-9.765625,0.0
1686971425.7618,-23.92578125,-7.8125,-94.7265625,-7.8125,0.0
1686971425.765704,7.8125,-4.8828125,-10.25390625,-6.34765625,0.0
1686971425.7696078,4.39453125,-19.53125,0.9765625,-7.8125,0.0
1686971425.7735114,-50.29296875,-24.90234375,-112.3046875,-20.01953125,0.0
1686971425.7774153,-48.828125,-41.9921875,-175.29296875,-26.85546875,0.0
1686971425.7813191,-14.6484375,-50.29296875,-37.59765625,-21.484375,0.0
1686971425.785223,20.99609375,-43.45703125,48.828125,-12.6953125,0.0
1686971425.7891266,-17.08984375,-47.36328125,-50.29296875,-10.7421875,0.0
1686971425.7930305,-46.38671875,-39.55078125,-77.63671875,-14.6484375,0.0
1686971425.7969344,-11.71875,-47.36328125,-22.4609375,-20.5078125,0.0
1686971425.8008657,30.76171875,-36.62109375,13.671875,-12.6953125,0.0
1686971425.8047695,-5.37109375,-12.20703125,-41.9921875,-1.953125,0.0
1686971425.8086734,-58.10546875,-21.484375,-102.05078125,-13.671875,0.0
1686971425.8125772,-34.1796875,-20.01953125,-78.61328125,-21.97265625,0.0
1686971425.8164809,0.9765625,-25.390625,-37.109375,-15.625,0.0
1686971425.8203847,-9.27734375,-55.6640625,-87.40234375,-16.11328125,0.0
1686971425.8242886,-41.015625,-57.6171875,-125.48828125,-13.18359375,0.0
1686971425.8281925,-26.85546875,-26.3671875,-19.04296875,-21.484375,0.0
1686971425.832096,-5.37109375,-16.11328125,10.7421875,-31.73828125,0.0
1686971425.836,-7.32421875,-26.85546875,-62.98828125,-11.23046875,0.0
1686971425.8399038,-66.89453125,-42.48046875,-79.58984375,-11.71875,0.0
1686971425.8438077,-61.5234375,-41.015625,-11.71875,-29.78515625,0.0
1686971425.847752,-20.5078125,-37.109375,-10.7421875,-23.92578125,0.0
1686971425.851656,2.9296875,-41.50390625,-68.84765625,-2.44140625,0.0
1686971425.8555598,-42.96875,-44.921875,-77.1484375,-18.5546875,0.0
1686971425.8594635,-61.03515625,-51.7578125,-73.2421875,-41.015625,0.0
1686971425.8633673,-16.6015625,-38.57421875,-62.01171875,-27.34375,0.0
1686971425.8672712,15.13671875,-24.4140625,-103.515625,-17.08984375,0.0
1686971425.871175,-15.13671875,-33.69140625,-83.0078125,-25.390625,0.0
1686971425.875079,-51.7578125,-41.9921875,-81.0546875,-26.3671875,0.0
1686971425.8789825,-26.85546875,-33.69140625,-125.0,-18.5546875,0.0
1686971425.8828864,3.41796875,-27.83203125,-109.375,-14.16015625,0.0
1686971425.8867903,-10.25390625,-28.3203125,-4.8828125,-13.671875,0.0
1686971425.8906941,-53.7109375,-41.9921875,-20.5078125,-18.5546875,0.0
1686971425.8946366,-25.87890625,-45.41015625,-68.359375,-5.859375,0.0
1686971425.8985405,11.23046875,-39.55078125,-16.6015625,0.48828125,0.0
1686971425.9024441,3.41796875,-38.57421875,5.859375,-9.27734375,0.0
1686971425.906348,-41.50390625,-36.62109375,-69.3359375,-24.90234375,0.0
1686971425.9102519,-30.2734375,-38.57421875,-83.0078125,-24.4140625,0.0
1686971425.9141557,12.6953125,-37.109375,-55.17578125,-22.94921875,0.0
1686971425.9180593,49.8046875,-31.73828125,-0.48828125,-15.13671875,0.0
1686971425.9219632,16.6015625,-21.97265625,3.90625,-8.30078125,0.0
1686971425.925867,-12.6953125,-22.4609375,-113.76953125,-13.18359375,0.0
1686971425.929771,10.7421875,-35.15625,-134.765625,-7.8125,0.0
1686971425.9336748,28.3203125,-33.69140625,-6.8359375,0.0,0.0
1686971425.9375784,-5.37109375,-26.3671875,1.953125,-3.41796875,0.0
1686971425.9415193,-53.7109375,-34.1796875,-95.21484375,-15.625,0.0
1686971425.9454231,-34.1796875,-49.31640625,-48.33984375,-5.859375,0.0
1686971425.949327,4.39453125,-54.19921875,20.01953125,0.0,0.0
1686971425.9532306,-3.90625,-38.57421875,-13.671875,-5.37109375,0.0
1686971425.9571345,-59.5703125,-34.1796875,-103.02734375,-21.484375,0.0
1686971425.9610384,-53.22265625,-35.64453125,-120.60546875,-24.90234375,0.0
1686971425.9649422,-9.765625,-35.15625,-39.0625,-12.20703125,0.0
1686971425.968846,19.53125,-36.1328125,-21.97265625,-13.18359375,0.0
1686971425.9727497,-23.92578125,-41.9921875,-170.8984375,-18.5546875,0.0
1686971425.9766536,-34.1796875,-43.45703125,-72.265625,-24.4140625,0.0
1686971425.9805574,11.23046875,-29.78515625,46.38671875,-10.7421875,0.0
1686971425.9844613,42.96875,-26.3671875,-5.37109375,-2.9296875,0.0
1686971425.9884005,-4.39453125,-29.296875,-90.8203125,-12.20703125,0.0
1686971425.9923043,-45.8984375,-37.59765625,-66.40625,-22.4609375,0.0
1686971425.9962082,-18.06640625,-41.9921875,-20.01953125,-18.5546875,0.0
1686971426.000112,17.08984375,-29.296875,-37.109375,-10.7421875,0.0
1686971426.004016,-6.8359375,-28.3203125,-35.15625,-14.16015625,0.0
1686971426.0079195,-46.875,-36.1328125,-79.58984375,-13.18359375,0.0
1686971426.0118234,-22.94921875,-35.15625,-58.59375,-14.6484375,0.0
1686971426.0157273,12.6953125,-28.3203125,-49.8046875,-6.8359375,0.0
1686971426.0196311,9.765625,-21.484375,-67.87109375,-2.44140625,0.0
1686971426.023535,-49.8046875,-28.80859375,-9.27734375,-33.69140625,0.0
1686971426.0274386,-45.41015625,-33.69140625,0.0,-41.50390625,0.0
1686971426.0313425,-6.34765625,-17.08984375,-28.3203125,-30.2734375,0.0
1686971426.03528,18.5546875,-16.6015625,-6.34765625,-18.06640625,0.0
1686971426.0391839,-25.390625,-33.203125,-15.625,-21.97265625,0.0
1686971426.0430877,-39.0625,-34.1796875,-54.19921875,-19.53125,0.0
1686971426.0469913,-0.9765625,-35.64453125,-98.14453125,-9.765625,0.0
1686971426.0508952,24.90234375,-30.76171875,-11.71875,-10.7421875,0.0
1686971426.054799,-11.71875,-29.296875,-17.08984375,-22.94921875,0.0
1686971426.058703,-49.8046875,-32.2265625,-80.078125,-33.203125,0.0
1686971426.0626068,-20.99609375,-25.87890625,-109.375,-23.4375,0.0
1686971426.0665107,16.11328125,-29.78515625,10.7421875,-28.80859375,0.0
1686971426.0704143,-8.30078125,-29.78515625,74.21875,-34.66796875,0.0
1686971426.0743182,-50.29296875,-21.97265625,-42.96875,-29.296875,0.0
1686971426.078222,-21.97265625,-34.1796875,-37.109375,-21.484375,0.0
1686971426.0821574,15.13671875,-41.9921875,32.2265625,-26.3671875,0.0
1686971426.0860612,22.4609375,-32.71484375,41.015625,-24.90234375,0.0
1686971426.089965,-37.59765625,-23.92578125,-57.12890625,-28.3203125,0.0
1686971426.093869,-47.36328125,-28.3203125,-73.73046875,-31.73828125,0.0
1686971426.0977726,-12.20703125,-46.875,6.8359375,-22.94921875,0.0
1686971426.1016765,13.671875,-43.45703125,-15.13671875,-21.484375,0.0
1686971426.1055803,-24.90234375,-33.203125,-112.3046875,-29.296875,0.0
1686971426.1094842,-39.0625,-30.76171875,-135.25390625,-28.3203125,0.0
1686971426.113388,-7.8125,-31.25,19.04296875,-29.78515625,0.0
1686971426.1172917,20.5078125,-41.50390625,41.9921875,-18.06640625,0.0
1686971426.1211956,-9.765625,-38.57421875,-72.75390625,-16.11328125,0.0
1686971426.1250994,-46.875,-22.4609375,-53.22265625,-19.53125,0.0
1686971426.1290483,-12.20703125,-15.625,11.23046875,-16.11328125,0.0
1686971426.1329522,26.3671875,-30.2734375,6.8359375,-19.04296875,0.0
1686971426.136856,14.6484375,-45.8984375,-91.796875,-17.08984375,0.0
1686971426.14076,-37.109375,-40.52734375,-98.14453125,-18.5546875,0.0
1686971426.1446636,-31.25,-28.3203125,-23.4375,-19.53125,0.0
1686971426.1485674,3.90625,-23.92578125,-74.21875,-17.578125,0.0
1686971426.1524713,8.30078125,-30.76171875,-146.97265625,-14.6484375,0.0
1686971426.1563752,-49.31640625,-36.62109375,-74.70703125,-26.85546875,0.0
1686971426.160279,-57.12890625,-32.2265625,-6.34765625,-37.59765625,0.0
1686971426.164183,-21.97265625,-28.80859375,-51.7578125,-25.390625,0.0
1686971426.1680865,14.16015625,-37.59765625,-43.45703125,0.48828125,0.0
1686971426.1719904,-27.83203125,-45.41015625,8.7890625,-4.8828125,0.0
1686971426.1759229,-59.5703125,-44.921875,-7.32421875,-14.6484375,0.0
1686971426.1798265,-25.390625,-45.8984375,-31.25,-10.25390625,0.0
1686971426.1837304,18.06640625,-33.69140625,-19.53125,-12.6953125,0.0
1686971426.1876342,-4.8828125,-19.53125,-39.0625,-20.01953125,0.0
1686971426.191538,-61.03515625,-17.08984375,-50.29296875,-28.3203125,0.0
1686971426.195442,-44.43359375,-5.859375,-77.63671875,-13.18359375,0.0
1686971426.1993456,-12.20703125,-13.18359375,-27.34375,-12.20703125,0.0
1686971426.2032495,-16.11328125,-46.875,21.97265625,-24.90234375,0.0
1686971426.2071533,-63.96484375,-44.921875,-40.52734375,-26.3671875,0.0
1686971426.2110572,-54.6875,-36.1328125,-124.51171875,-20.99609375,0.0
1686971426.214961,-11.71875,-25.87890625,-78.61328125,-16.11328125,0.0
1686971426.218865,2.44140625,-17.578125,19.53125,-19.04296875,0.0
1686971426.22281,-44.43359375,-34.66796875,-77.1484375,-24.4140625,0.0
1686971426.226714,-43.45703125,-23.92578125,-92.28515625,-20.01953125,0.0
1686971426.2306178,-12.6953125,-3.90625,9.765625,-18.06640625,0.0
1686971426.2345214,5.859375,-6.34765625,50.78125,-18.06640625,0.0
1686971426.2384253,-27.34375,-22.94921875,-25.390625,-19.04296875,0.0
1686971426.2423291,-45.41015625,-40.0390625,-134.27734375,-22.4609375,0.0
1686971426.246233,-16.11328125,-27.34375,-61.03515625,-16.11328125,0.0
1686971426.2501369,21.97265625,-13.18359375,52.24609375,-9.27734375,0.0
1686971426.2540405,-10.25390625,-20.01953125,-38.0859375,-10.25390625,0.0
1686971426.2579443,-61.03515625,-24.4140625,-165.52734375,-5.859375,0.0
1686971426.2618482,-31.73828125,-34.66796875,-27.34375,-15.13671875,0.0
1686971426.265752,5.859375,-36.62109375,55.6640625,-27.83203125,0.0
1686971426.2696953,4.8828125,-33.203125,-15.625,-18.06640625,0.0
1686971426.2735991,-42.48046875,-32.2265625,-72.75390625,-13.18359375,0.0
1686971426.277503,-26.3671875,-13.671875,-61.5234375,-2.9296875,0.0
1686971426.2814069,17.08984375,-11.23046875,-47.36328125,2.9296875,0.0
1686971426.2853107,25.87890625,-17.578125,-56.640625,3.41796875,0.0
1686971426.2892144,-14.6484375,-24.4140625,-99.609375,-3.90625,0.0
1686971426.2931182,-23.4375,-46.875,-39.55078125,-5.37109375,0.0
1686971426.297022,-2.9296875,-46.875,60.05859375,-2.9296875,0.0
1686971426.300926,20.99609375,-29.296875,-18.5546875,2.44140625,0.0
1686971426.3048298,-13.671875,-23.92578125,-98.14453125,6.8359375,0.0
1686971426.3087337,-53.22265625,-24.4140625,-3.41796875,-19.04296875,0.0
1686971426.3126373,-18.06640625,-23.92578125,1.953125,-28.80859375,0.0
1686971426.3165789,27.83203125,-19.53125,-50.78125,-15.13671875,0.0
1686971426.3204827,12.6953125,-16.11328125,-0.48828125,-13.18359375,0.0
1686971426.3243864,-31.25,-19.53125,6.8359375,-16.11328125,0.0
1686971426.3282902,-24.90234375,-40.0390625,-18.06640625,-19.04296875,0.0
1686971426.332194,9.765625,-35.64453125,-47.8515625,-11.71875,0.0
1686971426.336098,19.53125,-29.296875,-56.640625,-0.9765625,0.0
1686971426.3400018,-35.64453125,-43.45703125,-75.1953125,-18.06640625,0.0
1686971426.3439057,-41.50390625,-29.296875,-81.0546875,-28.80859375,0.0
1686971426.3478093,-13.18359375,-16.6015625,-132.8125,-16.11328125,0.0
1686971426.3517132,8.30078125,-28.80859375,-42.48046875,-12.6953125,0.0
1686971426.355617,-37.109375,-44.43359375,37.109375,-29.296875,0.0
1686971426.359521,-63.4765625,-50.78125,-27.34375,-28.80859375,0.0
1686971426.3634608,-30.2734375,-32.2265625,-12.20703125,-17.08984375,0.0
1686971426.3673646,10.7421875,-31.73828125,59.5703125,-11.71875,0.0
1686971426.3712683,-15.625,-49.31640625,-25.87890625,-23.92578125,0.0
1686971426.3751721,-59.5703125,-54.19921875,-99.609375,-36.62109375,0.0
1686971426.379076,-30.2734375,-52.24609375,-39.0625,-22.94921875,0.0
1686971426.3829799,10.25390625,-33.203125,-36.1328125,-8.30078125,0.0
1686971426.3868837,-8.30078125,-18.06640625,-19.04296875,-16.6015625,0.0
1686971426.3907876,-55.6640625,-18.06640625,-91.796875,-21.484375,0.0
1686971426.3946912,-37.59765625,-23.92578125,-111.81640625,-14.6484375,0.0
1686971426.398595,12.6953125,-15.625,47.8515625,-11.23046875,0.0
1686971426.402499,25.87890625,-18.06640625,49.31640625,-8.30078125,0.0
1686971426.4064028,-39.55078125,-42.96875,-98.14453125,-22.94921875,0.0
1686971426.4103403,-41.9921875,-49.31640625,-65.4296875,-36.62109375,0.0
1686971426.4142442,-6.8359375,-34.1796875,20.5078125,-35.15625,0.0
1686971426.418148,22.4609375,-34.1796875,7.32421875,-19.53125,0.0
1686971426.422052,-14.6484375,-15.625,-72.265625,-18.5546875,0.0
1686971426.4259558,-41.9921875,-10.7421875,-87.890625,-17.08984375,0.0
1686971426.4298594,-12.6953125,-32.2265625,-49.31640625,-4.8828125,0.0
1686971426.4337633,17.578125,-23.92578125,-35.15625,-2.44140625,0.0
1686971426.4376671,-10.25390625,-25.390625,-120.60546875,-10.25390625,0.0
1686971426.441571,-53.22265625,-46.875,-60.05859375,-28.3203125,0.0
1686971426.4454749,-36.62109375,-43.9453125,21.484375,-25.87890625,0.0
1686971426.4493787,-1.46484375,-37.109375,-23.92578125,-13.671875,0.0
1686971426.4532824,-10.25390625,-46.38671875,-18.06640625,-15.625,0.0
1686971426.457218,-58.59375,-43.9453125,-28.3203125,-29.296875,0.0
1686971426.4611218,-41.50390625,-21.484375,-13.18359375,-26.3671875,0.0
1686971426.4650257,-6.34765625,-24.4140625,-41.9921875,-15.625,0.0
1686971426.4689295,0.0,-31.25,-65.4296875,-13.18359375,0.0
1686971426.4728334,-48.33984375,-32.71484375,-47.36328125,-8.7890625,0.0
1686971426.4767373,-46.38671875,-41.9921875,-69.3359375,-6.34765625,0.0
1686971426.480641,-8.30078125,-25.87890625,-82.51953125,-2.9296875,0.0
1686971426.4845448,20.99609375,-12.20703125,-72.265625,2.9296875,0.0
1686971426.4884486,-23.92578125,-32.2265625,10.7421875,-13.18359375,0.0
1686971426.4923525,-58.59375,-40.52734375,-2.44140625,-25.87890625,0.0
1686971426.4962564,-27.83203125,-25.390625,-49.31640625,-23.4375,0.0
1686971426.5001602,0.9765625,-25.390625,16.11328125,-24.90234375,0.0
1686971426.504094,-36.1328125,-32.2265625,7.8125,-29.296875,0.0
1686971426.5079978,-71.2890625,-30.76171875,-106.93359375,-29.296875,0.0
1686971426.5119016,-40.0390625,-28.3203125,-82.51953125,-22.4609375,0.0
1686971426.5158052,6.8359375,-16.11328125,29.296875,-10.7421875,0.0
1686971426.519709,0.9765625,-36.1328125,15.625,-5.859375,0.0
1686971426.523613,-59.08203125,-55.17578125,-100.09765625,-14.16015625,0.0
1686971426.5275168,-41.015625,-32.2265625,-134.27734375,-20.5078125,0.0
1686971426.5314207,2.44140625,-29.78515625,-9.27734375,-19.04296875,0.0
1686971426.5353246,12.20703125,-35.64453125,53.7109375,-12.6953125,0.0
1686971426.5392282,-29.296875,-38.57421875,-63.4765625,-17.08984375,0.0
1686971426.543132,-24.4140625,-39.0625,-173.828125,-13.671875,0.0
1686971426.547036,0.0,-18.5546875,-50.78125,-13.671875,0.0
1686971426.5509682,13.671875,-16.11328125,28.80859375,-13.18359375,0.0
1686971426.554872,-29.78515625,-33.203125,-58.10546875,-17.08984375,0.0
1686971426.558776,-61.5234375,-42.48046875,-101.07421875,-14.16015625,0.0
1686971426.5626798,-25.87890625,-42.96875,-41.9921875,-25.390625,0.0
1686971426.5665836,24.4140625,-36.1328125,2.9296875,-19.53125,0.0
1686971426.5704875,15.625,-24.90234375,-59.08203125,-11.71875,0.0
1686971426.5743911,-41.9921875,-26.3671875,-87.40234375,-29.78515625,0.0
1686971426.578295,-17.578125,-13.671875,8.7890625,-35.64453125,0.0
1686971426.5821989,35.64453125,-1.46484375,26.85546875,-35.64453125,0.0
1686971426.5861027,31.25,-24.4140625,-40.52734375,-36.1328125,0.0
1686971426.5900066,-33.203125,-34.66796875,-56.640625,-41.015625,0.0
1686971426.5939105,-36.1328125,-31.73828125,-2.44140625,-40.0390625,0.0
1686971426.597858,-5.37109375,-37.109375,8.30078125,-14.6484375,0.0
1686971426.6017618,11.23046875,-46.38671875,-38.57421875,-3.90625,0.0
1686971426.6056657,-35.64453125,-42.48046875,-65.4296875,-14.6484375,0.0
1686971426.6095695,-46.875,-22.94921875,-42.48046875,-19.04296875,0.0
1686971426.6134732,-18.5546875,-11.71875,-44.43359375,-22.4609375,0.0
1686971426.617377,2.44140625,-20.01953125,-104.4921875,-11.23046875,0.0
1686971426.621281,-33.203125,-28.3203125,-105.46875,-18.5546875,0.0
1686971426.6251848,-60.546875,-25.87890625,-39.55078125,-25.87890625,0.0
1686971426.6290886,-20.5078125,-36.1328125,-27.83203125,-8.30078125,0.0
1686971426.6329925,15.625,-42.48046875,-94.23828125,-2.9296875,0.0
1686971426.6368961,-7.32421875,-29.78515625,-10.7421875,-19.04296875,0.0
1686971426.6408,-63.4765625,-21.97265625,-12.6953125,-30.76171875,0.0
1686971426.6447442,-42.96875,-22.94921875,-78.61328125,-16.6015625,0.0
1686971426.648648,0.9765625,-44.921875,-33.203125,-15.625,0.0
1686971426.652552,8.30078125,-36.1328125,-13.18359375,-14.16015625,0.0
1686971426.6564555,-41.9921875,-14.16015625,-107.421875,-14.16015625,0.0
1686971426.6603594,-38.57421875,-21.484375,-110.83984375,-21.484375,0.0
1686971426.6642632,-1.953125,-25.390625,-52.734375,-15.13671875,0.0
1686971426.668167,17.08984375,-26.3671875,-12.20703125,-11.23046875,0.0
1686971426.672071,-29.78515625,-25.390625,-7.8125,-18.5546875,0.0
1686971426.6759748,-31.73828125,-22.4609375,-100.09765625,-6.34765625,0.0
1686971426.6798787,4.8828125,-27.83203125,-120.1171875,2.44140625,0.0
1686971426.6837823,7.32421875,-39.55078125,28.3203125,-26.3671875,0.0
1686971426.6876862,-31.73828125,-35.15625,-3.90625,-38.57421875,0.0
1686971426.691628,-54.6875,-22.4609375,-118.65234375,-21.484375,0.0
1686971426.6955318,-28.3203125,-13.18359375,-47.8515625,-7.8125,0.0
1686971426.6994355,9.765625,-19.04296875,24.4140625,-14.6484375,0.0
1686971426.7033393,-0.9765625,-23.92578125,-18.06640625,-14.6484375,0.0
1686971426.7072432,-54.19921875,-37.109375,-104.98046875,-24.90234375,0.0
1686971426.711147,-34.1796875,-57.6171875,-105.46875,-22.94921875,0.0
1686971426.715051,1.46484375,-37.59765625,-40.52734375,-7.32421875,0.0
1686971426.7189548,11.23046875,-22.4609375,-27.83203125,-3.90625,0.0
1686971426.7228587,-47.8515625,-35.64453125,-159.1796875,-18.06640625,0.0
1686971426.7267623,-64.453125,-34.66796875,-59.08203125,-29.78515625,0.0
1686971426.7306662,-8.30078125,-40.0390625,40.0390625,-20.5078125,0.0
1686971426.73457,42.96875,-29.78515625,-41.9921875,-1.46484375,0.0
1686971426.7385097,-4.8828125,-32.2265625,-138.18359375,0.9765625,0.0
1686971426.7424135,-40.0390625,-46.38671875,-28.80859375,-20.01953125,0.0
1686971426.7463174,-13.671875,-34.66796875,0.48828125,-22.94921875,0.0
1686971426.750221,21.484375,-26.85546875,-49.8046875,4.8828125,0.0
1686971426.7541249,-5.37109375,-13.18359375,-35.64453125,-3.90625,0.0
1686971426.7580287,-57.6171875,-27.83203125,-84.47265625,-31.73828125,0.0
1686971426.7619326,-36.1328125,-46.875,-53.22265625,-29.78515625,0.0
1686971426.7658365,12.6953125,-37.59765625,-45.8984375,-24.4140625,0.0
1686971426.7697403,18.5546875,-32.71484375,-103.02734375,-5.859375,0.0
1686971426.7736442,-41.015625,-35.64453125,-36.1328125,-10.7421875,0.0
1686971426.7775478,-42.96875,-32.2265625,13.671875,-34.66796875,0.0
1686971426.7814517,-10.25390625,-21.484375,-47.8515625,-30.76171875,0.0
1686971426.78539,11.23046875,-7.8125,-23.4375,-15.13671875,0.0
1686971426.7892938,-38.57421875,-33.69140625,-19.53125,-28.3203125,0.0
1686971426.7931974,-46.875,-56.640625,-57.12890625,-25.87890625,0.0
1686971426.7971013,-0.9765625,-31.25,-47.8515625,-12.6953125,0.0
1686971426.8010051,31.73828125,-24.90234375,16.6015625,-8.7890625,0.0
1686971426.804909,-6.8359375,-30.2734375,-33.69140625,-2.44140625,0.0
1686971426.8088129,-32.2265625,-35.64453125,-91.796875,-6.8359375,0.0
1686971426.8127167,-11.71875,-41.9921875,-124.0234375,-13.18359375,0.0
1686971426.8166206,13.671875,-30.76171875,-12.20703125,-8.7890625,0.0
1686971426.8205242,-8.30078125,-31.73828125,41.9921875,-20.01953125,0.0
1686971426.824428,-54.6875,-39.0625,-44.43359375,-28.3203125,0.0
1686971426.828332,-42.48046875,-44.43359375,-46.875,-25.87890625,0.0
1686971426.8322685,-6.8359375,-43.45703125,-11.23046875,-20.01953125,0.0
1686971426.8361723,-0.48828125,-40.52734375,-2.9296875,-11.71875,0.0
1686971426.8400762,-48.33984375,-27.34375,-97.65625,-25.87890625,0.0
1686971426.8439798,-54.6875,-18.5546875,-99.609375,-32.71484375,0.0
1686971426.8478837,-16.11328125,-31.73828125,-20.01953125,-23.4375,0.0
1686971426.8517876,24.4140625,-43.9453125,-40.0390625,-6.8359375,0.0
1686971426.8556914,-28.3203125,-55.17578125,-130.859375,-6.34765625,0.0
1686971426.8595953,-44.921875,-34.66796875,-138.671875,-1.953125,0.0
1686971426.8634992,-12.20703125,-20.5078125,13.671875,-16.6015625,0.0
1686971426.867403,1.46484375,-34.66796875,14.16015625,-27.83203125,0.0
1686971426.8713067,-37.59765625,-30.2734375,-84.47265625,-23.92578125,0.0
1686971426.8752105,-64.94140625,-27.83203125,-57.12890625,-19.53125,0.0
1686971426.8791454,-33.69140625,-24.90234375,-1.953125,-4.8828125,0.0
1686971426.8830492,12.20703125,-24.4140625,-4.8828125,5.859375,0.0
1686971426.8869529,10.7421875,-27.34375,-85.44921875,-3.90625,0.0
1686971426.8908567,-42.96875,-33.203125,-86.9140625,-20.01953125,0.0
1686971426.8947606,-33.203125,-33.69140625,-31.25,-16.6015625,0.0
1686971426.8986645,4.8828125,-37.109375,-77.1484375,-17.08984375,0.0
1686971426.9025683,5.37109375,-32.71484375,-154.78515625,-4.8828125,0.0
1686971426.9064722,-47.8515625,-26.85546875,-86.9140625,-7.8125,0.0
1686971426.910376,-45.8984375,-36.1328125,-26.3671875,-21.484375,0.0
1686971426.9142797,-4.8828125,-34.66796875,-39.55078125,-13.671875,0.0
1686971426.9181836,23.4375,-20.99609375,0.0,1.46484375,0.0
1686971426.9220874,-27.34375,-29.78515625,-20.01953125,-9.27734375,0.0
1686971426.9260201,-57.12890625,-27.83203125,-63.96484375,-31.73828125,0.0
1686971426.9299238,-24.4140625,-16.11328125,-44.43359375,-36.1328125,0.0
1686971426.9338276,18.5546875,-19.53125,-51.26953125,-8.30078125,0.0
1686971426.9377315,-10.25390625,-33.69140625,-104.4921875,-5.37109375,0.0
1686971426.9416354,-51.7578125,-39.55078125,-49.8046875,-33.69140625,0.0
1686971426.9455392,-23.4375,-30.2734375,-70.3125,-27.34375,0.0
1686971426.949443,17.08984375,-31.25,-62.98828125,-7.8125,0.0
1686971426.953347,12.20703125,-27.83203125,27.34375,1.46484375,0.0
1686971426.9572506,-37.59765625,-16.6015625,-15.13671875,-9.27734375,0.0
1686971426.9611545,-29.78515625,-27.34375,-80.56640625,-13.671875,0.0
1686971426.9650583,11.23046875,-26.3671875,-45.8984375,-1.953125,0.0
1686971426.9689622,13.18359375,-25.390625,10.25390625,-1.953125,0.0
1686971426.972908,-41.9921875,-28.3203125,-24.4140625,-8.7890625,0.0
1686971426.976812,-27.34375,-23.4375,-60.546875,-14.16015625,0.0
1686971426.9807158,-4.8828125,-26.85546875,-19.53125,-23.4375,0.0
1686971426.9846196,4.8828125,-26.3671875,18.06640625,-11.71875,0.0
1686971426.9885235,-29.78515625,-38.0859375,-40.52734375,-10.25390625,0.0
1686971426.9924273,-44.43359375,-43.9453125,-132.32421875,-17.578125,0.0
1686971426.9963312,-17.578125,-39.0625,-49.31640625,-12.6953125,0.0
1686971427.0002348,8.30078125,-35.15625,57.12890625,-5.859375,0.0
1686971427.0041387,-1.46484375,-20.5078125,-31.25,4.8828125,0.0
1686971427.0080426,-43.45703125,-14.6484375,-158.69140625,-0.48828125,0.0
1686971427.0119464,-31.73828125,-15.13671875,-27.34375,-10.7421875,0.0
1686971427.0158503,16.6015625,-12.20703125,68.84765625,-5.859375,0.0
1686971427.0197945,3.90625,-19.04296875,-3.41796875,-14.16015625,0.0
1686971427.0236983,-55.17578125,-18.06640625,-72.265625,-24.4140625,0.0
1686971427.027602,-34.66796875,-13.18359375,-48.33984375,-15.625,0.0
1686971427.0315058,-0.48828125,-39.55078125,-38.57421875,-14.16015625,0.0
1686971427.0354097,11.71875,-39.55078125,-41.015625,-1.46484375,0.0
1686971427.0393136,-35.15625,-21.484375,-60.546875,6.34765625,0.0
1686971427.0432174,-59.08203125,-22.4609375,-37.109375,-13.671875,0.0
1686971427.0471213,-38.0859375,-20.01953125,30.76171875,-30.76171875,0.0
1686971427.0510252,-5.859375,-27.34375,-29.78515625,-20.99609375,0.0
1686971427.054929,-33.203125,-28.80859375,-86.9140625,-19.04296875,0.0
1686971427.0588326,-56.15234375,-23.92578125,23.92578125,-30.2734375,0.0
1686971427.0627365,-21.97265625,-15.625,43.45703125,-20.01953125,0.0
1686971427.0666788,19.04296875,-15.13671875,-25.87890625,-10.25390625,0.0
1686971427.0705826,-5.37109375,-23.92578125,-15.13671875,-21.484375,0.0
1686971427.0744863,-58.59375,-37.109375,-1.46484375,-38.0859375,0.0
1686971427.0783901,-33.69140625,-37.59765625,-31.73828125,-30.2734375,0.0
1686971427.082294,8.7890625,-21.97265625,-60.546875,-10.25390625,0.0
1686971427.0861979,-5.37109375,-26.3671875,-57.6171875,-13.671875,0.0
1686971427.0901017,-59.08203125,-27.34375,-62.98828125,-21.484375,0.0
1686971427.0940056,-47.8515625,-21.484375,-50.29296875,-18.06640625,0.0
1686971427.0979095,-5.859375,-23.92578125,-132.32421875,-4.8828125,0.0
1686971427.1018133,16.6015625,-25.390625,-43.45703125,5.37109375,0.0
1686971427.105717,-29.296875,-41.015625,2.9296875,-7.32421875,0.0
1686971427.1096208,-36.62109375,-30.2734375,-68.359375,-12.6953125,0.0
1686971427.113561,-8.30078125,-18.5546875,-32.71484375,-12.6953125,0.0
1686971427.1174648,14.16015625,-25.390625,27.34375,-18.5546875,0.0
1686971427.1213686,-20.5078125,-25.390625,-41.015625,-24.90234375,0.0
1686971427.1252725,-51.7578125,-19.53125,-104.98046875,-24.4140625,0.0
1686971427.1291764,-20.5078125,-11.71875,-44.921875,-20.99609375,0.0
1686971427.1330802,13.671875,-13.18359375,-34.66796875,-26.85546875,0.0
1686971427.136984,3.90625,-9.765625,-47.8515625,-10.7421875,0.0
1686971427.1408877,-35.64453125,-29.296875,-114.2578125,-1.46484375,0.0
1686971427.1447916,-23.4375,-49.8046875,-127.9296875,-9.27734375,0.0
1686971427.1486955,9.27734375,-34.1796875,4.39453125,-14.6484375,0.0
1686971427.1525993,10.25390625,-22.4609375,11.71875,-15.625,0.0
1686971427.1565032,-35.15625,-21.484375,-84.47265625,-13.18359375,0.0
1686971427.1604419,-21.97265625,-22.94921875,-40.0390625,-14.16015625,0.0
1686971427.1643457,0.0,-21.484375,25.87890625,-15.625,0.0
1686971427.1682496,10.7421875,-8.7890625,-4.8828125,-15.13671875,0.0
1686971427.1721532,-30.2734375,-10.7421875,-87.40234375,-31.73828125,0.0
1686971427.176057,-49.31640625,-26.3671875,-79.1015625,-35.15625,0.0
1686971427.179961,-7.8125,-14.6484375,-56.640625,-16.11328125,0.0
1686971427.1838648,36.62109375,0.48828125,-36.62109375,0.9765625,0.0
1686971427.1877687,1.46484375,-25.87890625,-120.1171875,0.0,0.0
1686971427.1916726,-42.96875,-30.76171875,-79.1015625,-24.4140625,0.0
1686971427.1955764,-19.53125,-12.20703125,4.39453125,-23.92578125,0.0
1686971427.1994803,9.765625,-21.484375,-15.13671875,-14.6484375,0.0
1686971427.203384,3.90625,-25.390625,-2.9296875,-12.20703125,0.0
1686971427.2073214,-48.33984375,-11.71875,-16.11328125,-24.4140625,0.0
1686971427.2112253,-53.22265625,-11.23046875,-10.25390625,-43.9453125,0.0
1686971427.2151291,-13.671875,-19.53125,-31.73828125,-41.015625,0.0
1686971427.219033,-4.8828125,-39.55078125,-45.41015625,-30.76171875,0.0
1686971427.2229369,-58.59375,-45.41015625,-33.69140625,-31.25,0.0
1686971427.2268407,-48.828125,-41.50390625,-62.01171875,-24.4140625,0.0
1686971427.2307444,1.46484375,-46.38671875,-97.16796875,-12.20703125,0.0
1686971427.2346482,24.90234375,-45.41015625,-87.890625,5.37109375,0.0
1686971427.238552,-18.06640625,-32.2265625,-15.13671875,0.48828125,0.0
1686971427.242456,-34.66796875,-27.34375,-31.25,-2.44140625,0.0
1686971427.2463598,-4.39453125,-14.6484375,-62.98828125,-0.48828125,0.0
1686971427.2502637,22.4609375,-19.53125,5.859375,-14.6484375,0.0
1686971427.2541986,-8.7890625,-43.45703125,-30.76171875,-21.484375,0.0
1686971427.2581022,-41.9921875,-24.4140625,-93.75,-16.11328125,0.0
1686971427.262006,-6.8359375,-9.27734375,-61.03515625,-15.625,0.0
1686971427.26591,30.76171875,-25.390625,14.6484375,-16.6015625,0.0
1686971427.2698138,13.18359375,-42.96875,14.6484375,-28.3203125,0.0
1686971427.2737176,-33.69140625,-44.43359375,-106.93359375,-41.50390625,0.0
1686971427.2776215,-10.25390625,-22.94921875,-165.0390625,-35.64453125,0.0
1686971427.2815254,38.57421875,-6.8359375,-42.48046875,-40.52734375,0.0
1686971427.2854292,35.64453125,-10.25390625,40.0390625,-50.29296875,0.0
1686971427.289333,-24.4140625,-25.390625,-62.01171875,-42.96875,0.0
1686971427.2932367,-33.203125,-34.66796875,-80.078125,-28.80859375,0.0
1686971427.2971406,-17.08984375,-32.71484375,11.23046875,-27.34375,0.0
1686971427.301089,2.9296875,-41.50390625,41.015625,-27.34375,0.0
1686971427.304993,-27.83203125,-45.8984375,-34.66796875,-25.390625,0.0
1686971427.3088968,-54.6875,-35.64453125,-73.2421875,-33.69140625,0.0
1686971427.3128004,-25.390625,-10.25390625,-56.15234375,-30.76171875,0.0
1686971427.3167043,12.20703125,-8.7890625,-33.69140625,-24.90234375,0.0
1686971427.3206081,-21.484375,-31.25,-87.890625,-24.90234375,0.0
1686971427.324512,-57.6171875,-27.34375,-101.5625,-20.01953125,0.0
1686971427.3284159,-19.04296875,-29.78515625,7.32421875,-11.71875,0.0
1686971427.3323197,11.71875,-46.875,25.390625,-14.6484375,0.0
1686971427.3362236,-4.39453125,-43.45703125,-50.29296875,-24.4140625,0.0
1686971427.3401275,-58.59375,-44.921875,-64.94140625,-29.78515625,0.0
1686971427.3440313,-43.9453125,-46.38671875,-17.578125,-24.4140625,0.0
1686971427.347978,2.44140625,-40.52734375,-37.59765625,-15.13671875,0.0
1686971427.351882,8.7890625,-39.55078125,-74.21875,-13.671875,0.0
1686971427.3557856,-54.19921875,-47.8515625,-67.3828125,-34.66796875,0.0
1686971427.3596895,-57.6171875,-56.640625,-29.78515625,-39.0625,0.0
1686971427.3635933,-9.27734375,-52.24609375,-20.01953125,-27.34375,0.0
1686971427.3674972,20.01953125,-45.41015625,-62.01171875,-20.01953125,0.0
1686971427.371401,-20.99609375,-34.1796875,-85.9375,-19.53125,0.0
1686971427.375305,-57.12890625,-24.4140625,-30.2734375,-27.83203125,0.0
1686971427.3792088,-27.34375,-21.97265625,-3.41796875,-35.64453125,0.0
1686971427.3831127,15.13671875,-30.2734375,-111.328125,-31.73828125,0.0
1686971427.3870165,-7.32421875,-41.9921875,-52.24609375,-32.2265625,0.0
1686971427.3909202,-49.31640625,-40.0390625,12.20703125,-25.87890625,0.0
1686971427.3948667,-32.71484375,-43.45703125,-29.78515625,-24.90234375,0.0
1686971427.3987706,-3.41796875,-45.41015625,6.34765625,-36.62109375,0.0
1686971427.4026744,-3.90625,-35.64453125,15.625,-27.34375,0.0
1686971427.4065783,-53.22265625,-51.26953125,-82.51953125,-19.04296875,0.0
1686971427.4104822,-40.0390625,-63.4765625,-91.30859375,-20.01953125,0.0
1686971427.4143858,-0.48828125,-37.59765625,-57.6171875,-17.578125,0.0
1686971427.4182897,21.97265625,-4.39453125,-3.90625,-0.48828125,0.0
1686971427.4221935,-29.296875,-17.578125,4.39453125,-7.32421875,0.0
1686971427.4260974,-47.36328125,-46.38671875,-102.05078125,-19.53125,0.0
1686971427.4300013,-6.8359375,-35.15625,-96.19140625,-10.25390625,0.0
1686971427.4339051,23.92578125,-37.109375,61.5234375,-8.30078125,0.0
1686971427.437809,-5.37109375,-46.875,17.08984375,-26.3671875,0.0
1686971427.441754,-43.45703125,-33.203125,-107.421875,-32.2265625,0.0
1686971427.445658,-26.85546875,-19.04296875,-52.734375,-22.94921875,0.0
1686971427.4495616,16.11328125,-17.578125,37.109375,-6.8359375,0.0
1686971427.4534655,6.34765625,-29.296875,10.7421875,-5.37109375,0.0
1686971427.4573693,-52.24609375,-29.78515625,-83.0078125,-14.16015625,0.0
1686971427.4612732,-32.71484375,-20.01953125,-92.28515625,-15.13671875,0.0
1686971427.465177,17.578125,-20.5078125,-7.32421875,-14.6484375,0.0
1686971427.469081,17.578125,-15.13671875,25.87890625,-13.671875,0.0
1686971427.4729848,-38.0859375,-14.6484375,-146.97265625,-11.23046875,0.0
1686971427.4768887,-41.50390625,-22.94921875,-59.5703125,-23.92578125,0.0
1686971427.4807925,-6.8359375,-37.59765625,62.01171875,-28.80859375,0.0
1686971427.4846964,25.390625,-48.828125,-4.39453125,-16.6015625,0.0
1686971427.4886372,-27.83203125,-38.57421875,-35.64453125,-27.34375,0.0
1686971427.492541,-51.7578125,-35.15625,0.0,-30.2734375,0.0
1686971427.496445,-4.8828125,-37.109375,5.37109375,-25.87890625,0.0
1686971427.5003488,23.92578125,-28.3203125,-35.64453125,-14.6484375,0.0
1686971427.5042527,-15.625,-14.6484375,-37.59765625,-16.6015625,0.0
1686971427.5081565,-62.98828125,-18.5546875,-81.0546875,-17.08984375,0.0
1686971427.5120604,-41.015625,-30.2734375,-31.73828125,-6.8359375,0.0
1686971427.515964,8.7890625,-26.3671875,-10.25390625,-0.9765625,0.0
1686971427.519868,8.30078125,-27.34375,-73.2421875,-3.90625,0.0
1686971427.5237718,-54.6875,-45.8984375,-14.16015625,-30.76171875,0.0
1686971427.5276756,-38.57421875,-59.08203125,-4.8828125,-30.76171875,0.0
1686971427.5315795,15.625,-31.25,-56.15234375,-5.37109375,0.0
1686971427.535518,15.625,-15.13671875,-10.25390625,-8.30078125,0.0
1686971427.5394218,-47.8515625,-24.90234375,-27.34375,-22.4609375,0.0
1686971427.5433257,-44.921875,-14.16015625,-90.33203125,-20.5078125,0.0
1686971427.5472295,-13.18359375,-21.484375,-58.10546875,-8.30078125,0.0
1686971427.5511334,11.71875,-45.41015625,32.71484375,5.37109375,0.0
1686971427.5550373,-27.83203125,-47.36328125,-34.1796875,-13.671875,0.0
1686971427.5589411,-50.29296875,-45.41015625,-105.95703125,-24.4140625,0.0
1686971427.562845,-23.4375,-45.8984375,-105.95703125,-7.8125,0.0
1686971427.5667489,-9.27734375,-34.66796875,5.859375,-14.6484375,0.0
1686971427.5706527,-29.78515625,-16.11328125,58.10546875,-24.90234375,0.0
1686971427.5745564,-52.734375,-17.578125,-39.55078125,-15.625,0.0
1686971427.5784602,-35.15625,-34.1796875,-126.46484375,-4.8828125,0.0
1686971427.582413,-0.48828125,-39.55078125,4.8828125,-14.6484375,0.0
1686971427.5863168,-9.765625,-56.640625,62.5,-17.578125,0.0
1686971427.5902207,-68.84765625,-65.91796875,-53.7109375,-30.2734375,0.0
1686971427.5941246,-56.15234375,-46.38671875,-66.89453125,-46.875,0.0
1686971427.5980284,-12.6953125,-38.57421875,-7.32421875,-44.921875,0.0
1686971427.601932,0.48828125,-30.2734375,-16.6015625,-26.3671875,0.0
1686971427.605836,-56.15234375,-30.2734375,-109.375,-20.01953125,0.0
1686971427.6097398,-53.22265625,-40.52734375,-111.328125,-14.16015625,0.0
1686971427.6136436,-8.30078125,-35.64453125,27.34375,-11.23046875,0.0
1686971427.6175475,10.25390625,-39.0625,-9.27734375,-15.625,0.0
1686971427.6214514,-38.0859375,-59.5703125,-81.54296875,-27.34375,0.0
1686971427.6253552,-62.98828125,-65.91796875,-27.34375,-39.55078125,0.0
1686971427.6292896,-29.296875,-40.52734375,25.87890625,-35.15625,0.0
1686971427.6331935,-2.44140625,-16.11328125,6.8359375,-28.80859375,0.0
1686971427.6370974,-21.484375,-16.6015625,-78.125,-25.390625,0.0
1686971427.6410012,-60.546875,-31.25,-54.6875,-26.3671875,0.0
1686971427.644905,-42.96875,-36.62109375,-11.71875,-29.78515625,0.0
1686971427.648809,-0.9765625,-25.390625,-71.77734375,-22.4609375,0.0
1686971427.6527128,0.0,-44.921875,-108.3984375,-17.08984375,0.0
1686971427.6566167,-60.546875,-57.6171875,-90.33203125,-21.484375,0.0
1686971427.6605206,-51.26953125,-31.25,-37.109375,-18.5546875,0.0
1686971427.6644244,-0.9765625,-25.390625,-15.625,-7.8125,0.0
1686971427.668328,14.16015625,-37.59765625,-128.41796875,0.9765625,0.0
1686971427.672232,-48.828125,-35.15625,-91.796875,-20.99609375,0.0
1686971427.676165,-62.98828125,-20.99609375,-25.87890625,-39.55078125,0.0
1686971427.680069,-20.5078125,-15.13671875,-43.45703125,-39.0625,0.0
1686971427.6839728,8.30078125,-31.73828125,-54.19921875,-29.296875,0.0
1686971427.6878765,-27.83203125,-54.19921875,-92.7734375,-21.484375,0.0
1686971427.6917803,-58.59375,-64.453125,-70.3125,-33.69140625,0.0
1686971427.6956842,-30.2734375,-41.9921875,-81.0546875,-29.78515625,0.0
1686971427.699588,-3.41796875,-26.3671875,-49.31640625,-16.11328125,0.0
1686971427.703492,-27.83203125,-36.62109375,13.18359375,-29.78515625,0.0
1686971427.7073958,-67.87109375,-64.94140625,-43.45703125,-37.109375,0.0
1686971427.7112997,-41.50390625,-59.08203125,-96.19140625,-20.99609375,0.0
1686971427.7152035,-11.71875,-26.3671875,-58.59375,-15.625,0.0
1686971427.7191074,-21.97265625,-31.25,30.2734375,-32.2265625,0.0
1686971427.723054,-67.87109375,-44.921875,-15.625,-37.59765625,0.0
1686971427.7269578,-51.26953125,-33.69140625,-80.078125,-23.4375,0.0
1686971427.7308617,-9.27734375,-33.69140625,-18.06640625,-12.6953125,0.0
1686971427.7347655,19.04296875,-39.0625,25.87890625,-10.25390625,0.0
1686971427.7386692,-19.53125,-30.2734375,-47.8515625,-10.7421875,0.0
1686971427.742573,-41.015625,-33.69140625,-123.53515625,-15.13671875,0.0
1686971427.746477,-36.62109375,-48.33984375,-62.98828125,-31.25,0.0
1686971427.7503808,-12.20703125,-52.734375,20.5078125,-33.203125,0.0
1686971427.7542846,-27.83203125,-47.36328125,-47.36328125,-32.2265625,0.0
1686971427.7581885,-66.89453125,-45.41015625,-172.36328125,-36.62109375,0.0
1686971427.7620924,-59.5703125,-41.50390625,-30.2734375,-47.8515625,0.0
1686971427.7659962,-28.3203125,-45.8984375,61.5234375,-49.31640625,0.0
1686971427.7699409,-36.1328125,-51.7578125,-34.1796875,-45.8984375,0.0
1686971427.7738447,-79.1015625,-51.26953125,-73.73046875,-40.52734375,0.0
1686971427.7777486,-51.7578125,-51.7578125,-13.18359375,-22.4609375,0.0
1686971427.7816525,-10.7421875,-47.8515625,-34.66796875,-20.99609375,0.0
1686971427.7855563,0.48828125,-41.50390625,-57.12890625,-22.4609375,0.0
1686971427.7894602,-47.36328125,-49.8046875,-79.58984375,-18.06640625,0.0
1686971427.793364,-56.640625,-51.7578125,-39.0625,-16.11328125,0.0
1686971427.797268,-15.13671875,-48.828125,40.52734375,-13.18359375,0.0
1686971427.8011718,24.4140625,-50.78125,-35.64453125,8.7890625,0.0
1686971427.8050754,-21.484375,-44.921875,-101.5625,7.32421875,0.0
1686971427.8089793,-44.921875,-25.390625,3.41796875,-14.6484375,0.0
1686971427.8128831,-11.71875,-22.4609375,20.5078125,-20.5078125,0.0
1686971427.816826,10.25390625,-41.9921875,-24.90234375,-24.4140625,0.0
1686971427.82073,-23.92578125,-47.8515625,2.44140625,-22.4609375,0.0
1686971427.8246336,-60.05859375,-38.57421875,-22.94921875,-19.53125,0.0
1686971427.8285375,-44.43359375,-27.83203125,-97.16796875,-32.71484375,0.0
1686971427.8324413,-5.37109375,-14.16015625,-73.2421875,-30.76171875,0.0
1686971427.8363452,-2.9296875,-14.16015625,-73.73046875,-24.90234375,0.0
1686971427.840249,-46.38671875,-20.99609375,-80.078125,-24.90234375,0.0
1686971427.844153,-31.25,-21.484375,-53.7109375,-29.78515625,0.0
1686971427.8480568,-7.32421875,-19.04296875,-139.6484375,-44.43359375,0.0
1686971427.8519607,-5.37109375,-20.99609375,-53.7109375,-42.48046875,0.0
1686971427.8558645,-52.24609375,-25.87890625,-19.04296875,-36.1328125,0.0
1686971427.8597684,-38.0859375,-31.25,-78.125,-28.3203125,0.0
1686971427.8637097,3.41796875,-44.921875,-60.05859375,-17.578125,0.0
1686971427.8676136,15.625,-50.29296875,-7.32421875,-9.27734375,0.0
1686971427.8715174,-27.83203125,-48.33984375,-61.5234375,-22.4609375,0.0
1686971427.8754213,-50.78125,-34.1796875,-130.859375,-28.80859375,0.0
1686971427.8793252,-16.6015625,-24.90234375,-82.51953125,-10.7421875,0.0
1686971427.883229,15.625,-28.80859375,-82.03125,-8.30078125,0.0
1686971427.887133,-5.859375,-39.0625,-85.44921875,-24.4140625,0.0
1686971427.8910367,-44.921875,-44.921875,-130.859375,-28.3203125,0.0
1686971427.8949404,-28.3203125,-37.59765625,-132.8125,-23.92578125,0.0
1686971427.8988442,5.859375,-21.97265625,22.4609375,-22.94921875,0.0
1686971427.902748,-1.953125,-23.4375,11.71875,-35.64453125,0.0
1686971427.906652,-62.01171875,-51.26953125,-125.48828125,-51.26953125,0.0
1686971427.910607,-50.78125,-58.10546875,-75.68359375,-39.0625,0.0
1686971427.914511,-4.8828125,-43.9453125,-3.41796875,-28.3203125,0.0
1686971427.9184148,7.8125,-28.80859375,-35.64453125,-20.01953125,0.0
1686971427.9223187,-40.52734375,-37.109375,-120.1171875,-25.87890625,0.0
1686971427.9262226,-43.9453125,-51.26953125,-71.2890625,-25.87890625,0.0
1686971427.9301264,-9.27734375,-40.52734375,-24.4140625,-7.32421875,0.0
1686971427.9340303,6.34765625,-21.484375,-57.12890625,-9.27734375,0.0
1686971427.937934,-35.15625,-22.4609375,-155.2734375,-20.01953125,0.0
1686971427.9418378,-54.19921875,-32.2265625,-90.33203125,-20.01953125,0.0
1686971427.9457417,-25.87890625,-38.0859375,-13.18359375,-27.34375,0.0
1686971427.9496455,1.46484375,-39.0625,-42.96875,-23.92578125,0.0
1686971427.9535494,-6.34765625,-26.85546875,-33.203125,-14.16015625,0.0
1686971427.9574862,-43.45703125,-31.73828125,-15.625,-22.4609375,0.0
1686971427.96139,-37.109375,-33.203125,-6.8359375,-33.203125,0.0
1686971427.965294,-2.44140625,-29.78515625,-33.69140625,-16.11328125,0.0
1686971427.9691978,6.8359375,-41.015625,-63.96484375,-6.34765625,0.0
1686971427.9731016,-43.9453125,-34.1796875,-51.7578125,-20.99609375,0.0
1686971427.9770055,-36.62109375,-22.4609375,-80.078125,-26.85546875,0.0
1686971427.9809093,-2.9296875,-20.01953125,-85.9375,-19.53125,0.0
1686971427.9848132,19.53125,-21.97265625,-29.296875,-16.11328125,0.0
1686971427.988717,-13.18359375,-20.5078125,-35.15625,-32.2265625,0.0
1686971427.992621,-24.90234375,-13.671875,-41.9921875,-41.9921875,0.0
1686971427.9965248,13.671875,-29.296875,-92.7734375,-42.96875,0.0
1686971428.0004284,45.41015625,-44.921875,-101.5625,-31.73828125,0.0
1686971428.0043633,0.0,-25.390625,-44.921875,-29.296875,0.0
1686971428.0082672,-46.875,-34.1796875,-46.38671875,-27.83203125,0.0
1686971428.012171,-27.83203125,-34.66796875,-60.05859375,-14.6484375,0.0
1686971428.016075,9.765625,-21.484375,9.27734375,-4.8828125,0.0
1686971428.0199788,-2.9296875,-20.99609375,-3.90625,4.39453125,0.0
1686971428.0238826,-69.82421875,-18.5546875,-107.421875,-23.4375,0.0
1686971428.0277865,-51.7578125,-28.80859375,-147.94921875,-27.83203125,0.0
1686971428.0316904,2.44140625,-47.8515625,-23.4375,-5.37109375,0.0
1686971428.035594,6.34765625,-43.45703125,41.50390625,-7.32421875,0.0
1686971428.0394979,-51.7578125,-20.5078125,-100.09765625,-3.90625,0.0
1686971428.0434017,-41.015625,-15.13671875,-83.49609375,-0.9765625,0.0
1686971428.0473056,-8.30078125,-41.9921875,14.16015625,-18.06640625,0.0
1686971428.0512388,13.18359375,-44.43359375,2.44140625,-16.6015625,0.0
1686971428.0551426,-19.04296875,-25.87890625,-77.63671875,-12.6953125,0.0
1686971428.0590465,-41.50390625,-3.90625,-85.44921875,-11.71875,0.0
1686971428.0629504,-16.6015625,-6.8359375,-55.6640625,-13.18359375,0.0
1686971428.0668542,12.20703125,-41.50390625,-39.0625,-11.71875,0.0
1686971428.070758,-17.578125,-48.828125,-105.95703125,-13.671875,0.0
1686971428.074662,-48.828125,-20.99609375,-156.25,-24.4140625,0.0
1686971428.0785658,-36.62109375,-5.859375,-22.4609375,-33.203125,0.0
1686971428.0824697,-3.41796875,-24.4140625,17.08984375,-33.69140625,0.0
1686971428.0863736,4.39453125,-25.87890625,-62.98828125,-23.92578125,0.0
1686971428.0902774,-43.9453125,-24.4140625,-64.453125,-17.578125,0.0
1686971428.0941813,-37.59765625,-41.015625,-10.7421875,-18.5546875,0.0
1686971428.0981283,2.44140625,-40.52734375,-10.7421875,-26.85546875,0.0
1686971428.1020322,28.3203125,-33.69140625,-59.08203125,-13.18359375,0.0
1686971428.105936,-9.765625,-29.78515625,-70.3125,1.953125,0.0
1686971428.10984,-31.73828125,-25.87890625,-52.734375,-21.97265625,0.0
1686971428.1137435,-29.296875,-23.92578125,-51.26953125,-44.43359375,0.0
1686971428.1176474,-16.11328125,-28.80859375,-69.82421875,-35.15625,0.0
1686971428.1215513,-52.24609375,-36.1328125,-76.171875,-28.80859375,0.0
1686971428.1254551,-68.359375,-37.59765625,-15.13671875,-37.59765625,0.0
1686971428.129359,-37.59765625,-37.59765625,7.8125,-23.4375,0.0
1686971428.1332629,-9.27734375,-44.43359375,-74.21875,-2.9296875,0.0
1686971428.1371667,-29.78515625,-47.36328125,-16.11328125,-14.16015625,0.0
1686971428.1410706,-58.10546875,-42.48046875,4.39453125,-31.25,0.0
1686971428.1450157,-38.0859375,-45.41015625,-32.2265625,-34.66796875,0.0
1686971428.1489196,-19.53125,-45.41015625,0.9765625,-24.4140625,0.0
1686971428.1528232,-21.484375,-39.55078125,-12.20703125,-21.97265625,0.0
1686971428.156727,-57.12890625,-39.0625,-83.984375,-27.34375,0.0
1686971428.160631,-47.36328125,-52.734375,-78.125,-24.4140625,0.0
1686971428.1645348,-10.7421875,-56.640625,-42.48046875,-17.08984375,0.0
1686971428.1684387,5.859375,-36.1328125,2.44140625,-12.6953125,0.0
1686971428.1723425,-39.55078125,-26.3671875,-5.859375,-15.13671875,0.0
1686971428.1762464,-53.22265625,-44.43359375,-102.05078125,-26.3671875,0.0
1686971428.1801503,-22.94921875,-48.828125,-93.26171875,-21.97265625,0.0
1686971428.1840541,-3.41796875,-41.015625,51.26953125,-11.71875,0.0
1686971428.187958,-38.57421875,-34.66796875,2.44140625,-25.87890625,0.0
1686971428.1919012,-53.22265625,-23.4375,-91.796875,-33.69140625,0.0
1686971428.195805,-25.87890625,-33.203125,-13.671875,-31.25,0.0
1686971428.199709,20.5078125,-32.2265625,40.0390625,-16.11328125,0.0
1686971428.2036128,6.34765625,-28.3203125,-19.53125,-8.7890625,0.0
1686971428.2075167,-44.921875,-41.9921875,-99.609375,-5.859375,0.0
1686971428.2114205,-19.53125,-46.875,-102.05078125,1.46484375,0.0
1686971428.2153244,18.5546875,-39.0625,-23.4375,-13.18359375,0.0
1686971428.2192283,8.7890625,-21.97265625,8.7890625,-10.7421875,0.0
1686971428.2231321,-47.36328125,-32.71484375,-145.5078125,-4.8828125,0.0
1686971428.2270358,-35.64453125,-26.3671875,-37.59765625,-9.27734375,0.0
1686971428.2309396,15.625,-6.8359375,72.265625,-0.48828125,0.0
1686971428.2348435,40.52734375,-14.6484375,-20.5078125,19.53125,0.0
1686971428.2387853,-10.25390625,-18.06640625,-27.34375,0.48828125,0.0
1686971428.2426891,-24.90234375,-16.11328125,5.859375,-11.71875,0.0
1686971428.246593,1.46484375,-27.34375,-11.71875,2.44140625,0.0
1686971428.2504969,22.94921875,-33.203125,-30.76171875,12.6953125,0.0
1686971428.2544007,-16.11328125,-28.80859375,-16.6015625,10.7421875,0.0
1686971428.2583046,-50.78125,-13.18359375,-36.62109375,5.859375,0.0
1686971428.2622085,-18.06640625,-0.48828125,-6.8359375,9.27734375,0.0
1686971428.2661123,30.76171875,-12.20703125,-13.18359375,18.5546875,0.0
1686971428.2700162,9.27734375,-18.06640625,-74.70703125,16.6015625,0.0
1686971428.27392,-53.7109375,-23.4375,-3.90625,-9.27734375,0.0
1686971428.277824,-41.9921875,-24.4140625,13.671875,-17.08984375,0.0
1686971428.2817278,2.44140625,-20.5078125,-35.15625,-3.90625,0.0
1686971428.2856672,8.7890625,-22.4609375,11.23046875,7.32421875,0.0
1686971428.289571,-45.41015625,-12.20703125,-17.08984375,6.8359375,0.0
1686971428.293475,-39.55078125,-4.39453125,-74.70703125,-6.8359375,0.0
1686971428.2973788,-7.32421875,-26.85546875,-41.015625,-10.7421875,0.0
1686971428.3012826,7.32421875,-27.83203125,29.78515625,-13.18359375,0.0
1686971428.3051865,-35.64453125,-10.25390625,-44.43359375,-19.04296875,0.0
1686971428.3090904,-51.26953125,-31.25,-94.7265625,-17.08984375,0.0
1686971428.3129942,-17.08984375,-35.64453125,-104.00390625,-8.30078125,0.0
1686971428.316898,26.3671875,-32.2265625,5.37109375,3.41796875,0.0
1686971428.320802,12.6953125,-26.85546875,58.59375,8.30078125,0.0
1686971428.3247058,-40.52734375,-11.23046875,-35.64453125,-18.06640625,0.0
1686971428.3286097,-35.15625,-8.30078125,-38.0859375,-32.71484375,0.0
1686971428.3325465,3.90625,-2.9296875,14.16015625,-23.92578125,0.0
1686971428.3364503,-0.9765625,-2.44140625,-14.6484375,-27.34375,0.0
1686971428.3403542,-45.8984375,-9.27734375,-107.91015625,-30.76171875,0.0
1686971428.344258,-32.2265625,-1.953125,-124.0234375,-25.87890625,0.0
1686971428.348162,19.53125,5.859375,-74.70703125,-18.06640625,0.0
1686971428.3520658,18.06640625,-8.7890625,-67.87109375,-31.25,0.0
1686971428.3559697,-58.59375,-31.73828125,-148.4375,-49.31640625,0.0
1686971428.3598735,-62.98828125,-36.62109375,-165.52734375,-45.41015625,0.0
1686971428.3637774,-29.296875,-43.45703125,-24.4140625,-50.78125,0.0
1686971428.3676813,-7.32421875,-46.38671875,1.46484375,-41.015625,0.0
1686971428.3715851,-45.8984375,-35.64453125,-104.4921875,-37.59765625,0.0
1686971428.375489,-68.84765625,-34.1796875,-88.37890625,-46.38671875,0.0
1686971428.379425,-36.62109375,-47.36328125,-26.85546875,-45.41015625,0.0
1686971428.383329,4.8828125,-67.3828125,-48.33984375,-35.15625,0.0
1686971428.3872328,-6.8359375,-78.125,-131.34765625,-26.85546875,0.0
1686971428.3911366,-48.33984375,-63.4765625,-100.09765625,-33.203125,0.0
1686971428.3950405,-30.76171875,-52.734375,-43.45703125,-17.08984375,0.0
1686971428.3989444,19.04296875,-40.0390625,-67.3828125,5.859375,0.0
1686971428.4028482,7.32421875,-39.0625,-167.96875,1.46484375,0.0
1686971428.4067519,-63.96484375,-39.55078125,-129.8828125,-31.25,0.0
1686971428.4106557,-52.734375,-29.78515625,22.4609375,-45.41015625,0.0
1686971428.4145596,-11.71875,-32.71484375,-5.859375,-34.66796875,0.0
1686971428.4184635,0.9765625,-42.96875,-49.31640625,-22.94921875,0.0
1686971428.4223673,-50.78125,-45.8984375,-58.59375,-35.64453125,0.0
1686971428.426301,-57.6171875,-52.24609375,-53.22265625,-51.26953125,0.0
1686971428.4302049,-13.671875,-52.734375,-41.015625,-43.9453125,0.0
1686971428.4341087,22.94921875,-36.1328125,-20.5078125,-12.6953125,0.0
1686971428.4380126,-15.625,-33.69140625,-45.41015625,-15.13671875,0.0
1686971428.4419165,-53.7109375,-49.8046875,-33.69140625,-38.57421875,0.0
1686971428.4458203,-24.4140625,-59.5703125,-40.0390625,-31.25,0.0
1686971428.4497242,15.13671875,-41.9921875,-41.9921875,-19.53125,0.0
1686971428.453628,-14.16015625,-28.80859375,7.8125,-33.69140625,0.0
1686971428.457532,-60.546875,-29.296875,-48.828125,-42.96875,0.0
1686971428.4614358,-28.3203125,-19.53125,-104.4921875,-21.484375,0.0
1686971428.4653394,14.16015625,-29.78515625,-33.203125,-18.5546875,0.0
1686971428.4692433,6.34765625,-46.875,38.57421875,-26.85546875,0.0
1686971428.473208,-46.38671875,-37.59765625,-31.73828125,-26.85546875,0.0
1686971428.4771118,-38.57421875,-38.0859375,-85.44921875,-29.78515625,0.0
1686971428.4810157,2.9296875,-46.38671875,-20.5078125,-23.4375,0.0
1686971428.4849195,20.99609375,-43.9453125,31.73828125,-8.7890625,0.0
1686971428.4888234,-32.71484375,-33.203125,-58.59375,-16.6015625,0.0
1686971428.4927273,-38.0859375,-31.73828125,-149.4140625,-25.87890625,0.0
1686971428.4966311,2.9296875,-33.69140625,-65.91796875,-17.578125,0.0
1686971428.500535,34.66796875,-20.5078125,33.203125,-5.37109375,0.0
1686971428.5044389,0.0,-27.83203125,-43.45703125,-12.6953125,0.0
1686971428.5083427,-48.33984375,-54.19921875,-181.640625,-22.94921875,0.0
1686971428.5122466,-40.52734375,-58.10546875,-65.4296875,-23.4375,0.0
1686971428.5161505,-0.48828125,-41.015625,36.62109375,-3.90625,0.0
1686971428.520096,-6.8359375,-25.390625,-46.875,1.953125,0.0
1686971428.524,-61.03515625,-36.62109375,-68.359375,-25.390625,0.0
1686971428.5279038,-45.8984375,-46.875,-34.1796875,-34.1796875,0.0
1686971428.5318074,0.9765625,-42.96875,-67.87109375,-20.99609375,0.0
1686971428.5357113,-1.46484375,-44.43359375,-83.49609375,-18.06640625,0.0
1686971428.5396152,-59.08203125,-35.64453125,-105.95703125,-24.4140625,0.0
1686971428.543519,-51.7578125,-45.41015625,-77.63671875,-23.92578125,0.0
1686971428.547423,-18.5546875,-54.19921875,-3.41796875,-18.5546875,0.0
1686971428.5513268,0.48828125,-35.64453125,-29.78515625,-9.27734375,0.0
1686971428.5552306,-35.64453125,-24.90234375,-74.21875,-20.5078125,0.0
1686971428.5591345,-51.7578125,-25.87890625,-37.109375,-27.83203125,0.0
1686971428.5630383,-21.97265625,-24.4140625,-7.8125,-13.671875,0.0
1686971428.5669823,14.16015625,-18.5546875,-100.5859375,-1.46484375,0.0
1686971428.5708861,-15.13671875,-15.625,-117.1875,-7.32421875,0.0
1686971428.57479,-46.875,-28.3203125,-32.2265625,-15.13671875,0.0
1686971428.5786939,-20.01953125,-48.828125,-62.5,-15.625,0.0
1686971428.5825977,9.765625,-28.3203125,-61.03515625,-24.4140625,0.0
1686971428.5865016,-7.8125,-13.671875,-57.12890625,-22.94921875,0.0
1686971428.5904055,-58.10546875,-16.11328125,-64.453125,-16.11328125,0.0
1686971428.5943093,-41.50390625,-21.97265625,-42.96875,-23.4375,0.0
1686971428.5982132,0.0,-31.73828125,-96.19140625,-16.6015625,0.0
1686971428.602117,2.44140625,-27.83203125,-8.30078125,-2.9296875,0.0
1686971428.606021,-55.17578125,-33.69140625,30.2734375,-22.94921875,0.0
1686971428.6099248,-60.546875,-44.921875,-30.2734375,-34.1796875,0.0
1686971428.613866,-20.99609375,-54.6875,-25.87890625,-22.4609375,0.0
1686971428.61777,7.8125,-53.22265625,45.41015625,-13.671875,0.0
1686971428.6216738,-38.0859375,-44.921875,-17.578125,-26.3671875,0.0
1686971428.6255777,-57.6171875,-36.62109375,-101.5625,-32.2265625,0.0
1686971428.6294816,-21.97265625,-31.73828125,-22.94921875,-29.78515625,0.0
1686971428.6333854,13.671875,-36.1328125,-12.6953125,-27.34375,0.0
1686971428.6372893,-5.859375,-32.2265625,-50.78125,-31.25,0.0
1686971428.6411932,-42.96875,-26.85546875,-100.5859375,-28.3203125,0.0
1686971428.645097,-18.5546875,-23.4375,-120.1171875,-17.08984375,0.0
1686971428.649001,22.4609375,-22.4609375,30.76171875,-24.90234375,0.0
1686971428.6529047,11.23046875,-25.87890625,28.3203125,-21.484375,0.0
1686971428.6568086,-37.59765625,-24.4140625,-91.30859375,-18.5546875,0.0
1686971428.660751,-22.4609375,-20.5078125,-41.015625,-19.04296875,0.0
1686971428.664655,11.23046875,-23.92578125,34.66796875,-16.6015625,0.0
1686971428.6685588,20.01953125,-34.66796875,-1.953125,-9.27734375,0.0
1686971428.6724627,-31.25,-32.71484375,-98.6328125,-11.71875,0.0
1686971428.6763666,-32.71484375,-15.625,-64.453125,-14.16015625,0.0
1686971428.6802704,0.48828125,-22.94921875,-55.17578125,-12.20703125,0.0
1686971428.6841743,20.01953125,-30.2734375,-89.35546875,-17.08984375,0.0
1686971428.6880782,-20.01953125,-28.3203125,-158.69140625,-27.34375,0.0
1686971428.691982,-54.6875,-32.2265625,-107.421875,-32.2265625,0.0
1686971428.695886,-31.73828125,-24.4140625,4.8828125,-22.94921875,0.0
1686971428.6997898,11.71875,-14.6484375,22.4609375,-15.625,0.0
1686971428.7036936,-17.578125,-31.25,-28.80859375,-28.3203125,0.0
1686971428.7076316,-57.6171875,-52.24609375,-38.57421875,-41.9921875,0.0
1686971428.7115355,-23.92578125,-51.26953125,-7.32421875,-37.109375,0.0
1686971428.7154393,14.6484375,-36.62109375,-44.43359375,-20.99609375,0.0
1686971428.7193432,3.41796875,-34.66796875,-80.56640625,-15.625,0.0
1686971428.723247,-63.96484375,-36.1328125,-39.0625,-37.109375,0.0
1686971428.727151,-46.875,-23.4375,-53.7109375,-40.52734375,0.0
1686971428.7310548,0.0,-21.97265625,-84.47265625,-22.4609375,0.0
1686971428.7349586,12.6953125,-34.66796875,-79.1015625,-6.8359375,0.0
1686971428.7388625,-31.25,-28.3203125,-4.8828125,-15.625,0.0
1686971428.7427664,-32.71484375,-20.01953125,16.6015625,-22.94921875,0.0
1686971428.7466702,13.18359375,-35.64453125,-26.3671875,-14.16015625,0.0
1686971428.750574,52.24609375,-39.0625,-22.94921875,-3.41796875,0.0
1686971428.75451,10.25390625,-27.34375,-1.953125,-26.3671875,0.0
1686971428.7584138,-27.83203125,-29.296875,-26.3671875,-36.62109375,0.0
1686971428.7623177,-12.20703125,-29.78515625,-70.3125,-21.484375,0.0
1686971428.7662215,12.6953125,-18.5546875,-17.578125,-21.97265625,0.0
1686971428.7701254,-9.765625,-18.06640625,-11.23046875,-16.11328125,0.0
1686971428.7740293,-58.10546875,-29.296875,-130.37109375,-18.06640625,0.0
1686971428.7779331,-31.25,-34.66796875,-166.015625,-11.23046875,0.0
1686971428.781837,7.32421875,-25.390625,-42.96875,1.46484375,0.0
1686971428.7857409,3.90625,-24.90234375,23.4375,-0.48828125,0.0
1686971428.7896447,-47.8515625,-41.9921875,-55.17578125,-12.20703125,0.0
1686971428.7935486,-42.96875,-44.43359375,-66.89453125,-15.13671875,0.0
1686971428.7974524,-19.04296875,-24.90234375,13.18359375,-25.87890625,0.0
1686971428.8014033,-14.16015625,-23.92578125,27.34375,-37.109375,0.0
1686971428.8053071,-56.640625,-33.69140625,-71.77734375,-33.203125,0.0
1686971428.809211,-62.98828125,-30.76171875,-113.28125,-25.390625,0.0
1686971428.813115,-24.90234375,-23.4375,-44.43359375,-20.01953125,0.0
1686971428.8170187,8.30078125,-18.06640625,29.78515625,-15.625,0.0
1686971428.8209226,-21.97265625,-16.6015625,-63.4765625,-13.18359375,0.0
1686971428.8248265,-43.9453125,-28.3203125,-121.58203125,-6.8359375,0.0
1686971428.8287303,-9.27734375,-32.2265625,14.6484375,-3.41796875,0.0
1686971428.8326342,20.01953125,-30.2734375,48.828125,0.0,0.0
1686971428.836538,-2.44140625,-33.69140625,-50.78125,-3.90625,0.0
1686971428.840442,-40.52734375,-33.69140625,-74.70703125,-16.11328125,0.0
1686971428.8443458,-23.92578125,-38.57421875,-16.11328125,-27.83203125,0.0
1686971428.8483112,2.9296875,-34.66796875,6.8359375,-27.34375,0.0
1686971428.852215,7.8125,-22.94921875,-78.61328125,-9.765625,0.0
1686971428.856119,-45.8984375,-23.4375,-96.6796875,-11.71875,0.0
1686971428.8600228,-42.96875,-34.66796875,-13.671875,-25.390625,0.0
1686971428.8639266,-0.48828125,-24.90234375,-16.11328125,-24.4140625,0.0
1686971428.8678305,14.6484375,-20.5078125,-61.03515625,-21.484375,0.0
1686971428.8717344,-42.48046875,-29.78515625,-91.796875,-30.76171875,0.0
1686971428.8756382,-51.26953125,-29.78515625,-23.4375,-29.296875,0.0
1686971428.879542,-13.18359375,-35.64453125,-7.8125,-34.66796875,0.0
1686971428.883446,12.20703125,-51.7578125,-102.05078125,-29.78515625,0.0
1686971428.8873498,-28.80859375,-50.78125,-17.08984375,-34.66796875,0.0
1686971428.8912537,-62.98828125,-33.203125,27.34375,-52.24609375,0.0
1686971428.8952003,-35.15625,-35.64453125,-39.55078125,-45.41015625,0.0
1686971428.899104,4.8828125,-44.43359375,-28.80859375,-29.296875,0.0
1686971428.903008,-8.30078125,-41.015625,-38.0859375,-29.296875,0.0
1686971428.9069118,-57.6171875,-39.0625,-111.328125,-24.90234375,0.0
1686971428.9108157,-33.69140625,-35.64453125,-111.81640625,-22.4609375,0.0
1686971428.9147196,9.765625,-41.015625,-70.3125,-33.203125,0.0
1686971428.9186234,26.3671875,-27.34375,-12.6953125,-18.06640625,0.0
1686971428.9225273,-40.52734375,-20.01953125,-55.17578125,-25.390625,0.0
1686971428.9264312,-53.7109375,-33.69140625,-103.02734375,-35.64453125,0.0
1686971428.930335,-15.13671875,-40.0390625,-31.73828125,-28.3203125,0.0
1686971428.934239,6.34765625,-29.78515625,5.37109375,-22.94921875,0.0
1686971428.9381428,-36.1328125,-19.04296875,-34.1796875,-33.203125,0.0
1686971428.9420874,-49.8046875,-20.5078125,-138.18359375,-34.1796875,0.0
1686971428.9459913,-13.18359375,-29.78515625,-86.42578125,-18.5546875,0.0
1686971428.9498951,16.6015625,-33.69140625,59.5703125,-18.06640625,0.0
1686971428.953799,-13.18359375,-21.97265625,0.9765625,-26.85546875,0.0
1686971428.9577029,-44.43359375,-14.6484375,-86.42578125,-29.296875,0.0
1686971428.9616067,-20.01953125,-14.6484375,-76.171875,-27.34375,0.0
1686971428.9655106,8.30078125,-21.484375,-11.71875,-29.296875,0.0
1686971428.9694145,4.39453125,-31.73828125,-11.71875,-16.6015625,0.0
1686971428.9733183,-40.0390625,-37.109375,-155.2734375,-5.859375,0.0
1686971428.9772222,-24.90234375,-37.109375,-67.3828125,-9.765625,0.0
1686971428.981126,19.53125,-36.62109375,1.953125,-19.04296875,0.0
1686971428.98503,24.4140625,-23.4375,-46.38671875,-16.11328125,0.0
1686971428.9889727,-41.50390625,-21.484375,-46.875,-35.64453125,0.0
1686971428.9928765,-45.8984375,-38.57421875,-4.8828125,-35.64453125,0.0
1686971428.9967804,3.41796875,-23.92578125,-19.04296875,-16.6015625,0.0
1686971429.0006843,22.4609375,-19.04296875,-46.875,-7.32421875,0.0
1686971429.0045881,-29.78515625,-36.1328125,-30.76171875,-16.6015625,0.0
1686971429.008492,-52.24609375,-33.69140625,-57.6171875,-25.87890625,0.0
1686971429.0123959,-10.25390625,-19.04296875,-45.8984375,-8.30078125,0.0
1686971429.0162997,22.4609375,-24.4140625,-42.96875,6.34765625,0.0
1686971429.0202036,-8.30078125,-43.45703125,-81.0546875,-0.9765625,0.0
1686971429.0241075,-54.6875,-35.64453125,-10.25390625,-14.6484375,0.0
1686971429.0280113,-28.3203125,-35.15625,19.04296875,-11.71875,0.0
1686971429.0319152,13.18359375,-34.66796875,-15.625,-10.7421875,0.0
1686971429.0358555,-1.46484375,-23.92578125,-35.15625,-15.625,0.0
1686971429.0397594,-63.4765625,-16.11328125,-87.890625,-33.69140625,0.0
1686971429.0436633,-45.8984375,-12.20703125,-71.2890625,-37.59765625,0.0
1686971429.0475671,-8.30078125,-26.3671875,-53.7109375,-32.2265625,0.0
1686971429.051471,-2.44140625,-38.0859375,-33.203125,-39.0625,0.0
1686971429.0553749,-49.8046875,-34.1796875,-85.9375,-39.55078125,0.0
1686971429.0592787,-51.7578125,-36.1328125,-106.93359375,-30.2734375,0.0
1686971429.0631826,-15.13671875,-39.55078125,-125.48828125,-16.11328125,0.0
1686971429.0670865,5.859375,-41.015625,-27.34375,-7.8125,0.0
1686971429.0709903,-33.203125,-44.921875,16.6015625,-11.71875,0.0
1686971429.0748942,-60.546875,-31.25,-62.5,-20.01953125,0.0
1686971429.078798,-31.25,-13.18359375,-44.43359375,-26.3671875,0.0
1686971429.0827355,4.39453125,-23.92578125,22.94921875,-21.97265625,0.0
1686971429.0866394,-25.390625,-37.59765625,4.8828125,-29.78515625,0.0
1686971429.0905433,-74.21875,-36.1328125,-83.984375,-36.1328125,0.0
1686971429.0944471,-42.48046875,-29.296875,-98.6328125,-27.34375,0.0
1686971429.098351,-2.44140625,-19.53125,-56.640625,-21.97265625,0.0
1686971429.1022549,-4.39453125,-29.296875,-39.0625,-26.3671875,0.0
1686971429.1061587,-62.98828125,-49.8046875,-95.21484375,-34.66796875,0.0
1686971429.1100626,-58.10546875,-44.921875,-120.60546875,-29.296875,0.0
1686971429.1139665,-12.20703125,-33.203125,29.296875,-28.3203125,0.0
1686971429.1178703,4.39453125,-41.50390625,76.171875,-20.99609375,0.0
1686971429.1217742,-51.26953125,-45.8984375,-50.29296875,-33.203125,0.0
1686971429.125678,-70.3125,-36.1328125,-50.29296875,-46.38671875,0.0
1686971429.1296136,-29.296875,-32.2265625,0.48828125,-33.203125,0.0
1686971429.1335175,11.23046875,-30.2734375,-1.46484375,-20.5078125,0.0
1686971429.1374214,-24.90234375,-42.96875,-74.70703125,-33.203125,0.0
1686971429.1413252,-59.5703125,-40.52734375,-61.5234375,-49.8046875,0.0
1686971429.145229,-30.76171875,-20.5078125,9.27734375,-36.62109375,0.0
1686971429.149133,8.7890625,-21.97265625,-31.73828125,-20.99609375,0.0
1686971429.1530368,-12.20703125,-45.8984375,-131.34765625,-25.87890625,0.0
1686971429.1569407,-70.3125,-58.59375,-76.66015625,-37.109375,0.0
1686971429.1608446,-46.875,-42.96875,38.57421875,-29.296875,0.0
1686971429.1647484,0.48828125,-41.9921875,3.90625,-13.18359375,0.0
1686971429.1686523,12.20703125,-46.875,-43.45703125,-5.859375,0.0
1686971429.1725562,-46.38671875,-43.45703125,-32.71484375,-18.06640625,0.0
1686971429.17649,-43.45703125,-31.73828125,-17.08984375,-21.97265625,0.0
1686971429.180394,-0.9765625,-9.765625,-31.73828125,-13.18359375,0.0
1686971429.1842978,19.53125,-9.27734375,-41.015625,-6.8359375,0.0
1686971429.1882017,-29.296875,-11.23046875,-86.9140625,-21.484375,0.0
1686971429.1921055,-48.33984375,-20.01953125,-46.38671875,-26.3671875,0.0
1686971429.1960094,-8.7890625,-32.2265625,-70.80078125,-11.71875,0.0
1686971429.1999133,25.87890625,-30.2734375,-83.984375,1.953125,0.0
1686971429.2038171,-14.16015625,-41.9921875,18.5546875,-14.6484375,0.0
1686971429.2077212,-64.94140625,-62.98828125,-27.34375,-36.62109375,0.0
1686971429.211625,-41.015625,-29.78515625,-80.078125,-30.76171875,0.0
1686971429.215529,5.37109375,-3.90625,-19.53125,-18.5546875,0.0
1686971429.2194328,2.44140625,-12.20703125,6.8359375,-18.5546875,0.0
1686971429.2233813,-54.6875,-15.625,-62.5,-30.2734375,0.0
1686971429.2272851,-47.8515625,-20.01953125,-106.4453125,-39.55078125,0.0
1686971429.231189,-5.859375,-27.83203125,-33.69140625,-28.3203125,0.0
1686971429.2350929,5.859375,-47.8515625,10.25390625,-11.23046875,0.0
1686971429.2389967,-42.96875,-44.43359375,-52.734375,-10.25390625,0.0
1686971429.2429006,-42.96875,-36.62109375,-132.32421875,-11.71875,0.0
1686971429.2468045,-14.6484375,-41.015625,-73.73046875,-20.99609375,0.0
1686971429.2507083,11.71875,-39.55078125,16.6015625,-17.578125,0.0
1686971429.2546122,-33.203125,-38.57421875,-76.171875,-21.97265625,0.0
1686971429.258516,-66.89453125,-32.71484375,-155.2734375,-41.015625,0.0
1686971429.2624202,-37.59765625,-33.203125,-53.22265625,-44.43359375,0.0
1686971429.266324,4.39453125,-45.41015625,0.9765625,-29.78515625,0.0
1686971429.2702703,-17.08984375,-51.7578125,-90.8203125,-25.390625,0.0
1686971429.2741742,-62.01171875,-38.57421875,-151.3671875,-30.76171875,0.0
1686971429.278078,-38.57421875,-28.80859375,-33.69140625,-26.85546875,0.0
1686971429.281982,12.6953125,-39.0625,-5.859375,-15.625,0.0
1686971429.2858858,5.859375,-39.0625,-57.12890625,-24.4140625,0.0
1686971429.2897897,-67.3828125,-35.15625,-110.3515625,-39.55078125,0.0
1686971429.2936935,-56.15234375,-44.921875,-58.10546875,-30.2734375,0.0
1686971429.2975974,-2.9296875,-51.26953125,47.36328125,-25.87890625,0.0
1686971429.3015013,17.08984375,-41.50390625,-45.8984375,-22.4609375,0.0
1686971429.3054051,-49.31640625,-30.2734375,-160.15625,-25.390625,0.0
1686971429.309309,-68.359375,-28.3203125,-23.4375,-41.015625,0.0
1686971429.3132129,-28.80859375,-38.0859375,15.625,-41.9921875,0.0
1686971429.3171747,13.18359375,-27.83203125,-53.22265625,-22.4609375,0.0
1686971429.3210785,-21.97265625,-12.20703125,-54.19921875,-26.85546875,0.0
1686971429.3249824,-60.546875,-27.34375,-82.51953125,-46.875,0.0
1686971429.3288863,-31.73828125,-44.43359375,-102.5390625,-37.109375,0.0
1686971429.3327901,1.46484375,-43.9453125,-62.98828125,-25.390625,0.0
1686971429.336694,-25.390625,-46.38671875,-72.75390625,-35.64453125,0.0
1686971429.3405979,-66.89453125,-44.921875,-68.359375,-31.25,0.0
1686971429.3445017,-49.8046875,-36.62109375,-46.38671875,-24.90234375,0.0
1686971429.3484056,-11.71875,-37.59765625,-114.74609375,-16.11328125,0.0
1686971429.3523095,-5.37109375,-38.0859375,-44.921875,-15.625,0.0
1686971429.3562136,-59.08203125,-31.73828125,12.20703125,-41.015625,0.0
1686971429.3601174,-46.875,-21.97265625,-49.31640625,-39.55078125,0.0
1686971429.36406,-9.27734375,-22.94921875,-68.359375,-23.4375,0.0
1686971429.3679638,1.46484375,-26.3671875,14.6484375,-17.08984375,0.0
1686971429.3718677,-53.7109375,-36.1328125,-37.59765625,-32.2265625,0.0
1686971429.3757715,-63.96484375,-36.1328125,-102.05078125,-48.33984375,0.0
1686971429.3796754,-25.87890625,-31.73828125,-30.76171875,-38.0859375,0.0
1686971429.3835793,4.8828125,-33.69140625,-10.7421875,-20.01953125,0.0
1686971429.3874831,-26.85546875,-46.875,-67.3828125,-20.01953125,0.0
1686971429.391387,-49.31640625,-49.8046875,-94.7265625,-17.578125,0.0
1686971429.3952909,-20.5078125,-32.2265625,-30.2734375,-11.71875,0.0
1686971429.3991947,7.8125,-24.90234375,34.1796875,-9.765625,0.0
1686971429.4030988,-13.18359375,-25.87890625,20.99609375,-18.5546875,0.0
1686971429.4070027,-66.40625,-34.66796875,-98.6328125,-27.34375,0.0
1686971429.4109445,-43.9453125,-39.0625,-84.9609375,-17.08984375,0.0
1686971429.4148483,-3.41796875,-41.50390625,40.0390625,-22.94921875,0.0
1686971429.4187522,1.953125,-47.36328125,-10.25390625,-20.99609375,0.0
1686971429.422656,-52.734375,-50.78125,-101.5625,-19.04296875,0.0
1686971429.42656,-46.875,-43.9453125,-51.26953125,-20.01953125,0.0
1686971429.4304638,-7.8125,-43.45703125,-48.33984375,-14.16015625,0.0
1686971429.4343677,14.6484375,-44.43359375,-75.68359375,-2.9296875,0.0
1686971429.4382715,-26.85546875,-34.1796875,-162.59765625,5.859375,0.0
1686971429.4421754,-47.8515625,-28.3203125,-132.32421875,-2.44140625,0.0
1686971429.4460793,-22.94921875,-37.59765625,17.08984375,-20.99609375,0.0
1686971429.4499831,17.08984375,-37.59765625,23.92578125,-18.06640625,0.0
1686971429.453887,-5.37109375,-29.78515625,-35.64453125,-23.92578125,0.0
1686971429.4578254,-40.52734375,-47.36328125,-48.33984375,-38.0859375,0.0
1686971429.4617293,-3.90625,-56.15234375,-18.06640625,-29.296875,0.0
1686971429.4656332,48.828125,-39.0625,-18.06640625,-16.11328125,0.0
1686971429.469537,30.2734375,-28.3203125,-37.109375,-17.578125,0.0
1686971429.473441,-43.9453125,-28.80859375,-42.48046875,-34.66796875,0.0
1686971429.4773448,-33.203125,-35.15625,-55.17578125,-27.83203125,0.0
1686971429.4812486,3.41796875,-21.97265625,-54.6875,-3.90625,0.0
1686971429.4851525,13.18359375,-15.13671875,-79.1015625,1.953125,0.0
1686971429.4890566,-35.64453125,-24.90234375,-18.06640625,-16.11328125,0.0
1686971429.4929605,-41.50390625,-31.25,3.90625,-18.5546875,0.0
1686971429.4968643,-8.7890625,-31.73828125,-49.31640625,-13.18359375,0.0
1686971429.5007682,18.06640625,-31.73828125,-8.30078125,-6.34765625,0.0
1686971429.504704,-24.4140625,-33.69140625,13.18359375,-11.71875,0.0
1686971429.5086079,-54.6875,-37.109375,-32.2265625,-29.78515625,0.0
1686971429.5125117,-24.90234375,-38.0859375,-83.49609375,-34.1796875,0.0
1686971429.5164156,13.18359375,-30.2734375,-26.3671875,-22.94921875,0.0
1686971429.5203195,-10.7421875,-27.34375,1.46484375,-27.34375,0.0
1686971429.5242233,-48.33984375,-21.484375,-92.28515625,-33.203125,0.0
1686971429.5281272,-17.08984375,-7.8125,-122.0703125,-18.06640625,0.0
1686971429.532031,15.625,-18.5546875,-0.9765625,-8.7890625,0.0
1686971429.535935,-10.7421875,-39.0625,70.80078125,-21.97265625,0.0
1686971429.5398388,-65.91796875,-36.1328125,-11.71875,-32.2265625,0.0
1686971429.5437427,-41.50390625,-24.90234375,-42.48046875,-21.97265625,0.0
1686971429.5476465,3.41796875,-24.90234375,20.99609375,-17.08984375,0.0
1686971429.5515802,5.37109375,-46.875,18.06640625,-16.6015625,0.0
1686971429.555484,-48.828125,-64.94140625,-78.61328125,-17.08984375,0.0
1686971429.559388,-52.734375,-43.9453125,-84.47265625,-24.90234375,0.0
1686971429.5632918,-22.94921875,-17.578125,-38.0859375,-28.80859375,0.0
1686971429.5671957,0.9765625,-20.5078125,24.4140625,-28.3203125,0.0
1686971429.5710998,-32.71484375,-27.83203125,-82.03125,-25.390625,0.0
1686971429.5750036,-54.6875,-20.5078125,-145.5078125,-20.5078125,0.0
1686971429.5789075,-22.4609375,-24.90234375,-3.41796875,-32.71484375,0.0
1686971429.5828114,18.5546875,-29.296875,22.4609375,-22.4609375,0.0
1686971429.5867152,-10.25390625,-48.33984375,-89.84375,-17.08984375,0.0
1686971429.590619,-61.03515625,-59.5703125,-99.609375,-29.296875,0.0
1686971429.594523,-40.0390625,-49.8046875,-5.859375,-30.2734375,0.0
1686971429.5984724,0.48828125,-43.9453125,7.8125,-19.04296875,0.0
1686971429.6023762,5.37109375,-35.15625,-51.26953125,-13.18359375,0.0
1686971429.60628,-47.36328125,-28.80859375,-44.921875,-28.80859375,0.0
1686971429.610184,-42.48046875,-26.85546875,-18.06640625,-38.0859375,0.0
1686971429.6140878,1.953125,-27.34375,-58.10546875,-24.90234375,0.0
1686971429.6179917,20.01953125,-28.3203125,-114.2578125,-7.8125,0.0
1686971429.6218956,-41.9921875,-47.8515625,-83.49609375,-15.13671875,0.0
1686971429.6257994,-53.7109375,-50.78125,1.953125,-24.4140625,0.0
1686971429.6297033,-7.8125,-42.96875,-34.1796875,-20.01953125,0.0
1686971429.6336071,20.99609375,-44.921875,-100.09765625,-9.27734375,0.0
1686971429.637511,-23.4375,-43.9453125,-31.25,-25.87890625,0.0
1686971429.6414149,-62.98828125,-45.41015625,-1.953125,-41.50390625,0.0
1686971429.6453621,-37.109375,-45.8984375,-41.015625,-44.921875,0.0
1686971429.649266,10.7421875,-32.2265625,-17.578125,-31.73828125,0.0
1686971429.6531699,-2.44140625,-48.828125,-9.27734375,-18.06640625,0.0
1686971429.6570737,-49.8046875,-61.03515625,-68.84765625,-30.2734375,0.0
1686971429.6609776,-39.0625,-39.0625,-64.453125,-28.80859375,0.0
1686971429.6648817,4.39453125,-25.390625,-35.15625,-14.16015625,0.0
1686971429.6687856,13.671875,-11.71875,-15.13671875,-10.25390625,0.0
1686971429.6726894,-50.78125,-21.484375,-18.06640625,-18.06640625,0.0
1686971429.6765933,-40.0390625,-27.83203125,-70.80078125,-15.13671875,0.0
1686971429.6804972,4.8828125,-24.4140625,-75.1953125,-5.859375,0.0
1686971429.684401,7.8125,-45.41015625,44.43359375,-17.08984375,0.0
1686971429.688305,-41.50390625,-52.734375,-19.53125,-29.296875,0.0
1686971429.69225,-53.22265625,-37.59765625,-91.796875,-28.80859375,0.0
1686971429.6961539,-20.01953125,-22.94921875,-15.625,-23.4375,0.0
1686971429.7000577,15.625,-13.671875,13.671875,-14.6484375,0.0
1686971429.7039616,-21.484375,-24.4140625,-41.50390625,-25.390625,0.0
1686971429.7078655,-56.15234375,-30.76171875,-104.00390625,-25.390625,0.0
1686971429.7117693,-26.85546875,-28.3203125,-83.0078125,-12.6953125,0.0
1686971429.7156732,5.859375,-28.80859375,20.99609375,-12.20703125,0.0
1686971429.719577,-7.8125,-29.296875,17.08984375,-14.6484375,0.0
1686971429.723481,-48.828125,-24.90234375,-153.3203125,-17.08984375,0.0
1686971429.7273848,-39.55078125,-33.69140625,-107.421875,-19.04296875,0.0
1686971429.7312887,-15.13671875,-32.71484375,52.24609375,-29.78515625,0.0
1686971429.7351928,-6.34765625,-21.97265625,6.8359375,-30.76171875,0.0
1686971429.7391357,-59.08203125,-39.0625,-61.03515625,-38.0859375,0.0
1686971429.7430396,-61.03515625,-34.1796875,8.30078125,-37.109375,0.0
1686971429.7469435,-23.92578125,-23.4375,13.671875,-33.69140625,0.0
1686971429.7508473,-5.859375,-38.57421875,-12.6953125,-23.92578125,0.0
1686971429.7547512,-44.921875,-33.69140625,-22.4609375,-20.99609375,0.0
1686971429.758655,-56.15234375,-26.3671875,-72.265625,-24.90234375,0.0
1686971429.762559,-25.87890625,-36.62109375,-35.64453125,-25.87890625,0.0
1686971429.7664628,9.765625,-30.76171875,-23.4375,-15.13671875,0.0
1686971429.7703667,-16.11328125,-8.7890625,-101.07421875,-6.34765625,0.0
1686971429.7742705,-58.59375,-17.08984375,-4.8828125,-19.04296875,0.0
1686971429.7781744,-37.109375,-40.0390625,43.45703125,-23.92578125,0.0
1686971429.7820783,9.765625,-40.52734375,-15.13671875,-9.27734375,0.0
1686971429.7860198,2.9296875,-23.92578125,-43.9453125,-0.48828125,0.0
1686971429.7899237,-50.78125,-10.25390625,-29.78515625,-13.18359375,0.0
1686971429.7938278,-37.109375,-20.99609375,-9.27734375,-24.90234375,0.0
1686971429.7977316,-6.34765625,-28.3203125,-33.203125,-30.76171875,0.0
1686971429.8016355,1.953125,-15.625,-12.20703125,-24.4140625,0.0
1686971429.8055394,-53.22265625,-28.3203125,-58.59375,-15.625,0.0
1686971429.8094432,-58.10546875,-48.33984375,-77.63671875,-20.99609375,0.0
1686971429.813347,-19.53125,-39.0625,-82.51953125,-20.99609375,0.0
1686971429.817251,2.44140625,-33.69140625,-2.44140625,-14.6484375,0.0
1686971429.8211548,-39.0625,-33.203125,33.203125,-17.08984375,0.0
1686971429.8250587,-65.4296875,-24.90234375,-30.2734375,-23.4375,0.0
1686971429.8289626,-27.83203125,-26.85546875,-34.1796875,-20.01953125,0.0
1686971429.8329034,16.11328125,-28.80859375,41.015625,-10.25390625,0.0
1686971429.8368073,-6.8359375,-30.76171875,22.4609375,-12.20703125,0.0
1686971429.840711,-42.48046875,-45.8984375,-77.63671875,-5.859375,0.0
1686971429.844615,-14.6484375,-48.828125,-97.65625,-4.39453125,0.0
1686971429.848519,19.04296875,-31.25,-25.390625,-10.25390625,0.0
1686971429.852423,1.953125,-25.390625,-24.90234375,-9.765625,0.0
1686971429.8563268,-68.359375,-30.76171875,-115.234375,-24.90234375,0.0
1686971429.8602307,-55.17578125,-33.69140625,-125.9765625,-25.390625,0.0
1686971429.8641346,-10.25390625,-36.1328125,17.578125,-24.4140625,0.0
1686971429.8680384,3.41796875,-26.85546875,49.31640625,-20.99609375,0.0
1686971429.8719423,-48.828125,-26.3671875,-57.6171875,-21.484375,0.0
1686971429.8758461,-51.26953125,-34.66796875,-38.0859375,-15.13671875,0.0
1686971429.8798003,-5.37109375,-19.04296875,6.34765625,-7.32421875,0.0
1686971429.8837042,12.6953125,-17.578125,9.27734375,-19.53125,0.0
1686971429.887608,-23.92578125,-34.1796875,-70.80078125,-17.08984375,0.0
1686971429.891512,-49.31640625,-35.15625,-53.7109375,-13.18359375,0.0
1686971429.8954158,-32.2265625,-38.0859375,-8.30078125,-22.4609375,0.0
1686971429.8993196,-2.9296875,-34.66796875,-67.87109375,-16.11328125,0.0
1686971429.9032235,-23.92578125,-32.71484375,-157.2265625,-4.39453125,0.0
1686971429.9071274,-64.453125,-36.62109375,-90.8203125,-15.13671875,0.0
1686971429.9110312,-46.38671875,-28.3203125,29.296875,-17.578125,0.0
1686971429.914935,-1.953125,-33.69140625,5.859375,0.9765625,0.0
1686971429.9188392,3.90625,-40.0390625,-46.875,-6.34765625,0.0
1686971429.922743,-53.22265625,-26.3671875,-56.15234375,-27.83203125,0.0
1686971429.9266775,-41.015625,-32.71484375,-37.109375,-28.3203125,0.0
1686971429.9305813,0.9765625,-40.52734375,-26.85546875,-12.20703125,0.0
1686971429.9344852,20.99609375,-28.80859375,-34.1796875,-11.23046875,0.0
1686971429.938389,-31.25,-24.90234375,-66.40625,-29.296875,0.0
1686971429.942293,-38.0859375,-34.66796875,-56.15234375,-31.25,0.0
1686971429.9461968,1.46484375,-22.94921875,-65.91796875,-16.6015625,0.0
1686971429.9501007,22.94921875,-13.18359375,-33.203125,-2.9296875,0.0
1686971429.9540045,-12.6953125,-10.25390625,-0.48828125,-7.32421875,0.0
1686971429.9579084,-37.109375,2.9296875,-32.71484375,-9.765625,0.0
1686971429.9618123,-9.765625,0.9765625,-71.77734375,-6.34765625,0.0
1686971429.9657161,29.78515625,-20.99609375,-47.36328125,5.859375,0.0
1686971429.96962,9.765625,-26.85546875,47.36328125,5.859375,0.0
1686971429.9735696,-40.52734375,-9.765625,-7.8125,-9.27734375,0.0
1686971429.9774735,-23.4375,-14.6484375,-60.546875,-14.16015625,0.0
1686971429.9813776,16.6015625,-26.85546875,9.27734375,-5.859375,0.0
1686971429.9852815,13.671875,-18.5546875,24.90234375,-12.6953125,0.0
1686971429.9891853,-42.96875,-13.671875,-50.29296875,-24.90234375,0.0
1686971429.9930892,-37.59765625,-17.578125,-110.83984375,-17.578125,0.0
1686971429.996993,-1.953125,-19.04296875,-54.19921875,-5.859375,0.0
1686971430.000897,16.11328125,-21.484375,29.296875,-8.7890625,0.0
1686971430.0048008,-35.15625,-17.578125,-53.7109375,-28.3203125,0.0
1686971430.0087047,-47.36328125,-18.06640625,-161.1328125,-23.4375,0.0
1686971430.0126085,-10.7421875,-32.2265625,-39.0625,-13.671875,0.0
1686971430.0165124,12.20703125,-41.50390625,3.90625,-11.71875,0.0
1686971430.0204947,-12.20703125,-29.78515625,-78.61328125,-3.90625,0.0
1686971430.0243986,-38.0859375,-20.5078125,-47.8515625,-3.41796875,0.0
1686971430.0283024,-21.484375,-29.78515625,-15.625,-11.71875,0.0
1686971430.0322063,12.6953125,-23.4375,-40.52734375,-11.71875,0.0
1686971430.0361102,3.90625,-3.41796875,-64.453125,-8.7890625,0.0
1686971430.040014,-53.7109375,-4.8828125,-100.5859375,-21.484375,0.0
1686971430.0439181,-38.57421875,-13.18359375,-38.57421875,-22.94921875,0.0
1686971430.047822,13.671875,-20.5078125,49.31640625,-13.671875,0.0
1686971430.0517259,20.01953125,-25.87890625,-37.109375,-8.30078125,0.0
1686971430.0556297,-42.48046875,-21.97265625,-122.55859375,-19.04296875,0.0
1686971430.0595336,-51.26953125,-23.92578125,15.625,-27.34375,0.0
1686971430.0634375,-17.578125,-27.83203125,35.15625,-21.97265625,0.0
1686971430.067384,8.7890625,-26.85546875,-30.2734375,-15.13671875,0.0
1686971430.0712879,-34.66796875,-28.80859375,-43.9453125,-12.6953125,0.0
1686971430.0751917,-41.9921875,-29.78515625,-62.98828125,-15.13671875,0.0
1686971430.0790956,-6.34765625,-42.96875,-21.97265625,-19.53125,0.0
1686971430.0829995,18.06640625,-48.33984375,-14.16015625,-16.11328125,0.0
1686971430.0869036,-11.23046875,-25.390625,-48.33984375,-20.01953125,0.0
1686971430.0908074,-53.7109375,-13.18359375,-38.57421875,-40.0390625,0.0
1686971430.0947113,-25.390625,-18.06640625,-19.04296875,-33.203125,0.0
1686971430.0986152,20.5078125,-19.53125,-64.453125,-21.97265625,0.0
1686971430.102519,7.32421875,-17.08984375,-10.25390625,-21.97265625,0.0
1686971430.106423,-47.8515625,-21.97265625,-5.37109375,-7.8125,0.0
1686971430.1103268,-24.4140625,-30.76171875,-69.82421875,-3.90625,0.0
1686971430.1142695,12.6953125,-48.828125,-64.453125,-15.13671875,0.0
1686971430.1181734,15.625,-57.12890625,18.5546875,-17.08984375,0.0
1686971430.1220775,-35.64453125,-33.203125,-21.97265625,-30.2734375,0.0
1686971430.1259813,-47.36328125,-20.99609375,-106.4453125,-35.64453125,0.0
1686971430.1298852,-20.5078125,-23.92578125,-154.296875,-22.4609375,0.0
1686971430.133789,3.41796875,-24.90234375,-63.96484375,-28.3203125,0.0
1686971430.137693,-29.296875,-21.97265625,-29.296875,-39.0625,0.0
1686971430.1415968,-42.96875,-29.78515625,-88.37890625,-28.80859375,0.0
1686971430.1455007,-20.01953125,-55.6640625,-90.33203125,-20.99609375,0.0
1686971430.1494045,7.32421875,-59.5703125,21.484375,-21.97265625,0.0
1686971430.1533084,-8.7890625,-38.57421875,33.203125,-27.34375,0.0
1686971430.1572123,-45.8984375,-18.5546875,-56.15234375,-33.69140625,0.0
1686971430.1611528,-7.32421875,-0.48828125,-11.71875,-21.97265625,0.0
1686971430.1650567,42.48046875,4.8828125,55.17578125,-20.99609375,0.0
1686971430.1689606,44.921875,-5.859375,6.34765625,-15.625,0.0
1686971430.1728644,-1.46484375,-18.5546875,-88.8671875,-21.97265625,0.0
1686971430.1767683,-1.953125,-21.97265625,-49.31640625,-39.0625,0.0
1686971430.1806722,18.5546875,-26.3671875,-27.34375,-33.203125,0.0
1686971430.184576,17.578125,-27.83203125,-44.43359375,-16.11328125,0.0
1686971430.18848,-35.15625,-27.83203125,-125.9765625,-5.37109375,0.0
1686971430.1923838,-47.8515625,-38.57421875,-61.03515625,-18.06640625,0.0
1686971430.1962879,-12.20703125,-36.1328125,45.8984375,-25.390625,0.0
1686971430.2001917,19.53125,-40.0390625,-1.953125,-8.30078125,0.0
1686971430.2040956,-20.01953125,-37.59765625,-70.3125,-11.23046875,0.0
1686971430.2080338,-47.8515625,-24.90234375,-53.7109375,-25.87890625,0.0
1686971430.2119377,-12.20703125,-24.90234375,-22.94921875,-24.4140625,0.0
1686971430.2158418,22.94921875,-20.5078125,-62.01171875,-9.765625,0.0
1686971430.2197456,-1.953125,-27.83203125,-94.7265625,-10.25390625,0.0
1686971430.2236495,-50.78125,-25.87890625,-74.70703125,-26.3671875,0.0
1686971430.2275534,-32.71484375,-21.484375,-70.80078125,-23.4375,0.0
1686971430.2314572,-3.41796875,-50.29296875,-108.88671875,-12.6953125,0.0
1686971430.235361,-3.41796875,-49.8046875,-149.90234375,-15.13671875,0.0
1686971430.239265,-54.6875,-33.69140625,-62.5,-27.83203125,0.0
1686971430.2431688,-49.31640625,-40.52734375,-23.92578125,-31.73828125,0.0
1686971430.2470727,-12.6953125,-42.48046875,-70.3125,-33.69140625,0.0
1686971430.2509766,2.9296875,-20.01953125,-22.4609375,-27.34375,0.0
1686971430.2549129,-41.015625,-4.8828125,-26.3671875,-29.296875,0.0
1686971430.2588167,-54.6875,-26.3671875,-58.10546875,-40.52734375,0.0
1686971430.2627206,-19.53125,-50.78125,-71.77734375,-44.921875,0.0
1686971430.2666245,16.11328125,-61.5234375,-17.08984375,-21.97265625,0.0
1686971430.2705283,-24.90234375,-62.98828125,-47.8515625,-12.20703125,0.0
1686971430.2744322,-66.89453125,-53.7109375,-153.80859375,-27.83203125,0.0
1686971430.2783363,-33.203125,-40.0390625,-177.734375,-20.01953125,0.0
1686971430.2822402,-1.46484375,-31.73828125,-62.5,-24.4140625,0.0
1686971430.286144,-18.5546875,-27.34375,2.44140625,-30.2734375,0.0
1686971430.290048,-57.12890625,-22.94921875,-96.19140625,-22.4609375,0.0
1686971430.2939517,-41.50390625,-35.64453125,-101.07421875,-31.25,0.0
1686971430.2978556,3.90625,-51.26953125,-8.30078125,-24.90234375,0.0
1686971430.301791,7.32421875,-56.640625,-34.66796875,-17.08984375,0.0
1686971430.3056948,-48.828125,-54.6875,-131.8359375,-29.296875,0.0
1686971430.3095987,-44.921875,-48.33984375,-102.05078125,-28.3203125,0.0
1686971430.3135026,-14.6484375,-44.921875,-43.9453125,-26.3671875,0.0
1686971430.3174064,2.9296875,-36.62109375,-6.8359375,-34.66796875,0.0
1686971430.3213103,-43.45703125,-32.71484375,-105.95703125,-40.52734375,0.0
1686971430.3252141,-63.4765625,-39.0625,-131.8359375,-31.25,0.0
1686971430.329118,-33.69140625,-45.41015625,11.71875,-25.87890625,0.0
1686971430.333022,-0.9765625,-42.96875,20.99609375,-23.92578125,0.0
1686971430.336926,-31.25,-46.38671875,-99.609375,-23.92578125,0.0
1686971430.3408298,-63.4765625,-56.640625,-100.5859375,-28.3203125,0.0
1686971430.3447337,-35.64453125,-56.640625,-20.5078125,-32.71484375,0.0
1686971430.3486843,3.41796875,-43.9453125,-13.671875,-20.01953125,0.0
1686971430.3525882,-12.6953125,-33.69140625,-76.171875,-17.578125,0.0
1686971430.356492,-74.70703125,-40.0390625,-83.0078125,-32.2265625,0.0
1686971430.360396,-59.08203125,-37.59765625,-69.82421875,-29.78515625,0.0
1686971430.3642998,-13.18359375,-29.296875,-67.87109375,-24.90234375,0.0
1686971430.3682039,2.44140625,-30.76171875,-78.61328125,-22.94921875,0.0
1686971430.3721077,-49.31640625,-25.390625,-61.03515625,-32.2265625,0.0
1686971430.3760116,-42.48046875,-25.87890625,0.0,-34.66796875,0.0
1686971430.3799155,-1.953125,-48.33984375,-15.13671875,-14.16015625,0.0
1686971430.3838193,16.11328125,-52.24609375,-92.7734375,0.48828125,0.0
1686971430.3877232,-24.4140625,-44.43359375,-59.5703125,-10.7421875,0.0
1686971430.391627,-40.52734375,-34.66796875,-2.9296875,-8.7890625,0.0
1686971430.3955743,-13.18359375,-28.3203125,-31.25,-11.71875,0.0
1686971430.3994782,18.5546875,-39.0625,-23.4375,-7.8125,0.0
1686971430.403382,-6.8359375,-34.1796875,-33.203125,-6.34765625,0.0
1686971430.407286,-47.8515625,-28.80859375,-86.9140625,-15.625,0.0
1686971430.41119,-19.04296875,-23.92578125,-80.56640625,-2.9296875,0.0
1686971430.415094,7.8125,-40.52734375,-52.734375,-8.30078125,0.0
1686971430.4189978,-11.71875,-67.87109375,-67.3828125,-27.83203125,0.0
1686971430.4229016,-59.5703125,-54.19921875,-74.70703125,-38.57421875,0.0
1686971430.4268055,-41.50390625,-37.109375,-87.40234375,-30.76171875,0.0
1686971430.4307094,-4.39453125,-28.3203125,-93.75,-8.30078125,0.0
1686971430.4346132,-0.9765625,-41.015625,18.06640625,-5.37109375,0.0
1686971430.438517,-57.12890625,-46.38671875,-16.11328125,-20.99609375,0.0
1686971430.4424622,-61.03515625,-36.62109375,-91.30859375,-31.73828125,0.0
1686971430.446366,-18.5546875,-26.85546875,-24.4140625,-25.87890625,0.0
1686971430.4502702,9.765625,-31.25,12.20703125,-13.671875,0.0
1686971430.454174,-27.34375,-41.50390625,-68.359375,-8.30078125,0.0
1686971430.458078,-45.41015625,-25.390625,-117.67578125,-15.625,0.0
1686971430.4619818,-13.671875,-24.90234375,-75.68359375,-20.99609375,0.0
1686971430.4658856,23.92578125,-35.15625,-5.37109375,-10.25390625,0.0
1686971430.4697895,7.32421875,-26.3671875,-4.8828125,-4.39453125,0.0
1686971430.4736934,-41.9921875,-27.83203125,-165.0390625,-6.34765625,0.0
1686971430.4775972,-38.57421875,-43.9453125,-130.859375,-10.25390625,0.0
1686971430.481501,0.9765625,-43.45703125,30.76171875,-3.41796875,0.0
1686971430.4854052,-2.9296875,-39.0625,-12.20703125,-5.37109375,0.0
1686971430.489348,-62.01171875,-39.55078125,-103.02734375,-27.83203125,0.0
1686971430.493252,-54.19921875,-26.3671875,-36.1328125,-26.85546875,0.0
1686971430.497156,-13.671875,-24.4140625,-8.7890625,-11.23046875,0.0
1686971430.5010598,7.32421875,-31.25,-47.36328125,-11.71875,0.0
1686971430.5049636,-37.59765625,-27.34375,-53.22265625,-20.5078125,0.0
1686971430.5088675,-48.828125,-28.80859375,-86.9140625,-19.53125,0.0
1686971430.5127714,-19.04296875,-34.66796875,-48.828125,-18.06640625,0.0
1686971430.5166752,12.20703125,-47.8515625,-40.0390625,-13.18359375,0.0
1686971430.520579,-18.06640625,-39.0625,-133.7890625,-4.8828125,0.0
1686971430.524483,-55.6640625,-34.66796875,-38.0859375,-25.390625,0.0
1686971430.528387,-35.15625,-46.875,12.6953125,-36.62109375,0.0
1686971430.532291,8.7890625,-35.64453125,-50.29296875,-20.5078125,0.0
1686971430.5362325,-8.7890625,-24.90234375,-47.8515625,-18.5546875,0.0
1686971430.5401366,-62.01171875,-16.6015625,-23.4375,-41.9921875,0.0
1686971430.5440404,-44.43359375,-18.06640625,-39.55078125,-36.62109375,0.0
1686971430.5479443,-5.37109375,-40.0390625,-75.68359375,-17.08984375,0.0
1686971430.5518482,6.8359375,-41.50390625,-58.59375,-12.6953125,0.0
1686971430.555752,-33.203125,-23.92578125,-101.07421875,-15.625,0.0
1686971430.559656,-41.015625,-23.4375,-106.4453125,-9.27734375,0.0
1686971430.5635598,-8.30078125,-33.203125,-113.28125,7.32421875,0.0
1686971430.5674636,13.18359375,-40.0390625,-35.15625,-5.859375,0.0
1686971430.5713675,-42.96875,-30.76171875,-4.8828125,-30.76171875,0.0
1686971430.5752716,-49.8046875,-21.484375,-49.31640625,-27.83203125,0.0
1686971430.5791755,-10.25390625,-26.3671875,-41.9921875,-17.578125,0.0
1686971430.583114,10.7421875,-19.04296875,12.20703125,-16.11328125,0.0
1686971430.5870178,-24.4140625,-24.4140625,-13.671875,-12.20703125,0.0
1686971430.5909216,-55.6640625,-34.66796875,-79.1015625,-20.5078125,0.0
1686971430.5948255,-28.80859375,-38.0859375,-84.9609375,-32.71484375,0.0
1686971430.5987294,9.27734375,-44.921875,-31.73828125,-22.94921875,0.0
1686971430.6026335,-10.7421875,-38.0859375,-44.43359375,-18.5546875,0.0
1686971430.6065373,-58.10546875,-33.203125,-125.9765625,-14.6484375,0.0
1686971430.6104412,-31.73828125,-27.83203125,-126.46484375,-11.23046875,0.0
1686971430.614345,3.90625,-16.6015625,44.921875,-27.34375,0.0
1686971430.618249,3.90625,-21.484375,64.94140625,-16.11328125,0.0
1686971430.6221528,-47.8515625,-30.2734375,-65.91796875,-17.08984375,0.0
1686971430.6260567,-44.43359375,-23.92578125,-39.0625,-30.2734375,0.0
1686971430.6299934,-11.71875,-30.76171875,23.4375,-32.71484375,0.0
1686971430.6338973,7.8125,-52.734375,-1.46484375,-25.390625,0.0
1686971430.6378012,-35.64453125,-47.8515625,-90.8203125,-20.99609375,0.0
1686971430.6417053,-52.734375,-27.34375,-53.7109375,-25.390625,0.0
1686971430.6456091,-10.25390625,-24.4140625,-7.8125,-23.92578125,0.0
1686971430.649513,27.34375,-25.390625,-37.109375,-9.765625,0.0
1686971430.6534169,2.9296875,-19.04296875,-102.5390625,-0.48828125,0.0
1686971430.6573207,-38.57421875,-22.94921875,-51.26953125,-15.13671875,0.0
1686971430.6612246,-30.76171875,-28.80859375,52.24609375,-25.87890625,0.0
1686971430.6651285,4.39453125,-41.50390625,2.44140625,-20.99609375,0.0
1686971430.6690323,-1.46484375,-53.7109375,-116.69921875,-12.20703125,0.0
1686971430.6729364,-57.6171875,-62.98828125,-63.4765625,-22.94921875,0.0
1686971430.6768713,-43.9453125,-53.7109375,7.8125,-26.3671875,0.0
1686971430.6807752,0.48828125,-34.1796875,-2.9296875,-11.71875,0.0
1686971430.684679,11.23046875,-19.04296875,-27.34375,-4.39453125,0.0
1686971430.688583,-49.31640625,-19.53125,-59.5703125,-17.578125,0.0
1686971430.6924868,-41.9921875,-28.3203125,-19.04296875,-17.578125,0.0
1686971430.6963906,14.16015625,-30.76171875,-67.87109375,-6.8359375,0.0
1686971430.7002945,28.80859375,-39.55078125,-112.3046875,-12.6953125,0.0
1686971430.7041986,-31.25,-48.828125,-20.5078125,-38.57421875,0.0
1686971430.7081025,-56.640625,-46.38671875,-34.66796875,-37.59765625,0.0
1686971430.7120063,-22.4609375,-37.109375,-41.015625,-28.3203125,0.0
1686971430.7159102,22.94921875,-22.94921875,39.55078125,-20.5078125,0.0
1686971430.719814,2.44140625,-9.765625,26.85546875,-12.6953125,0.0
1686971430.723764,-46.38671875,-19.04296875,-46.38671875,-27.34375,0.0
1686971430.7276678,-32.2265625,-42.96875,-72.75390625,-31.25,0.0
1686971430.7315717,4.39453125,-41.015625,-4.39453125,-22.4609375,0.0
1686971430.7354755,-3.41796875,-38.0859375,23.92578125,-20.5078125,0.0
1686971430.7393794,-59.08203125,-39.55078125,-37.59765625,-23.4375,0.0
1686971430.7432833,-40.0390625,-28.3203125,-101.07421875,-15.625,0.0
1686971430.7471871,-4.39453125,-21.97265625,-58.10546875,-15.13671875,0.0
1686971430.7510912,0.48828125,-26.3671875,34.1796875,-15.625,0.0
1686971430.754995,-46.38671875,-40.0390625,-47.36328125,-21.97265625,0.0
1686971430.758899,-48.828125,-39.55078125,-110.83984375,-30.76171875,0.0
1686971430.7628028,-13.671875,-27.34375,-41.015625,-28.3203125,0.0
1686971430.7667067,13.18359375,-25.390625,17.578125,-15.625,0.0
1686971430.7706552,-25.87890625,-48.828125,-37.109375,-18.5546875,0.0
1686971430.774559,-49.8046875,-55.6640625,-149.4140625,-18.06640625,0.0
1686971430.778463,-19.04296875,-28.80859375,-51.7578125,-15.625,0.0
1686971430.7823668,24.4140625,-26.85546875,-7.32421875,-15.625,0.0
1686971430.7862706,2.9296875,-46.875,-65.91796875,-18.5546875,0.0
1686971430.7901747,-49.31640625,-32.71484375,-85.44921875,-26.85546875,0.0
1686971430.7940786,-32.2265625,-18.5546875,-27.83203125,-23.4375,0.0
1686971430.7979825,4.39453125,-26.85546875,39.55078125,-22.94921875,0.0
1686971430.8018863,2.9296875,-36.62109375,-74.70703125,-24.4140625,0.0
1686971430.8057902,-54.19921875,-40.52734375,-166.015625,-33.203125,0.0
1686971430.809694,-49.31640625,-31.25,-6.8359375,-43.9453125,0.0
1686971430.813598,-14.6484375,-28.80859375,40.0390625,-29.296875,0.0
1686971430.817544,0.9765625,-26.85546875,-42.96875,-12.20703125,0.0
1686971430.821448,-40.52734375,-21.484375,-86.42578125,-12.6953125,0.0
1686971430.825352,-44.43359375,-32.2265625,-33.203125,-13.18359375,0.0
1686971430.8292558,-23.4375,-33.203125,-5.859375,-20.01953125,0.0
1686971430.8331597,-7.8125,-24.4140625,-54.19921875,-32.2265625,0.0
1686971430.8370636,-38.57421875,-26.3671875,-101.07421875,-41.9921875,0.0
1686971430.8409674,-60.546875,-31.25,-84.47265625,-41.9921875,0.0
1686971430.8448713,-33.203125,-30.2734375,-20.5078125,-30.76171875,0.0
1686971430.8487754,12.20703125,-23.4375,-101.5625,-15.13671875,0.0
1686971430.8526793,0.0,-22.4609375,-69.82421875,-20.01953125,0.0
1686971430.856583,-55.17578125,-32.71484375,-6.8359375,-37.59765625,0.0
1686971430.860487,-27.83203125,-38.0859375,-49.8046875,-27.83203125,0.0
1686971430.864431,17.578125,-41.9921875,-51.26953125,-12.20703125,0.0
1686971430.8683348,8.7890625,-41.015625,-15.625,-19.04296875,0.0
1686971430.8722386,-42.48046875,-44.43359375,-81.0546875,-31.73828125,0.0
1686971430.8761427,-29.78515625,-57.12890625,-104.4921875,-46.875,0.0
1686971430.8800466,9.27734375,-39.55078125,-49.31640625,-51.7578125,0.0
1686971430.8839505,26.3671875,-27.83203125,-44.921875,-44.43359375,0.0
1686971430.8878543,-20.5078125,-31.25,-45.41015625,-49.8046875,0.0
1686971430.8917582,-34.1796875,-29.296875,-96.6796875,-48.33984375,0.0
1686971430.895662,-10.25390625,-30.2734375,-133.7890625,-34.1796875,0.0
1686971430.899566,9.27734375,-29.78515625,18.5546875,-13.671875,0.0
1686971430.90347,-27.83203125,-30.2734375,7.32421875,-5.859375,0.0
1686971430.907374,-61.03515625,-43.9453125,-96.19140625,-16.6015625,0.0
1686971430.9113333,-35.64453125,-49.31640625,-38.57421875,-19.04296875,0.0
1686971430.9152372,-7.32421875,-43.9453125,5.37109375,-24.4140625,0.0
1686971430.919141,-14.6484375,-28.80859375,-26.85546875,-21.97265625,0.0
1686971430.923045,-62.98828125,-21.484375,-101.5625,-24.4140625,0.0
1686971430.9269488,-48.828125,-37.109375,-66.89453125,-24.4140625,0.0
1686971430.9308527,0.0,-40.52734375,-46.875,-9.765625,0.0
1686971430.9347568,4.39453125,-38.0859375,-89.84375,-4.39453125,0.0
1686971430.9386606,-52.734375,-42.96875,-170.41015625,1.46484375,0.0
1686971430.9425645,-50.29296875,-37.59765625,-79.1015625,-2.44140625,0.0
1686971430.9464684,-7.32421875,-23.4375,42.96875,-17.08984375,0.0
1686971430.9503722,16.6015625,-19.04296875,6.8359375,-9.765625,0.0
1686971430.954276,-41.015625,-26.85546875,-57.6171875,-14.6484375,0.0
1686971430.9582167,-63.4765625,-36.62109375,-38.0859375,-30.2734375,0.0
1686971430.9621205,-22.4609375,-45.41015625,9.765625,-32.71484375,0.0
1686971430.9660244,18.06640625,-36.62109375,-21.484375,-10.25390625,0.0
1686971430.9699283,3.90625,-31.25,-82.51953125,0.0,0.0
1686971430.9738321,-41.9921875,-34.66796875,-58.59375,-17.578125,0.0
1686971430.977736,-25.87890625,-27.83203125,-73.73046875,-19.04296875,0.0
1686971430.9816399,9.765625,-25.87890625,-60.05859375,-19.53125,0.0
1686971430.985544,-2.9296875,-30.76171875,-6.8359375,-14.16015625,0.0
1686971430.9894478,-53.7109375,-29.296875,-59.08203125,-18.5546875,0.0
1686971430.9933517,-33.203125,-22.4609375,-68.359375,-26.3671875,0.0
1686971430.9972556,4.39453125,-29.78515625,-77.1484375,-13.671875,0.0
1686971431.0011594,6.8359375,-42.48046875,-77.1484375,-11.23046875,0.0
1686971431.005097,-44.43359375,-46.875,-0.9765625,-35.64453125,0.0
1686971431.0090008,-29.78515625,-21.484375,-31.25,-28.3203125,0.0
1686971431.0129046,-0.9765625,-11.23046875,-71.2890625,-12.6953125,0.0
1686971431.0168085,4.39453125,-34.66796875,-1.46484375,-9.765625,0.0
1686971431.0207124,-30.2734375,-36.62109375,-23.4375,-17.578125,0.0
1686971431.0246162,-45.8984375,-29.78515625,-105.95703125,-26.85546875,0.0
1686971431.02852,-16.6015625,-43.45703125,-146.484375,-20.99609375,0.0
1686971431.0324242,18.06640625,-40.0390625,-47.36328125,-11.71875,0.0
1686971431.036328,-11.71875,-34.66796875,27.83203125,-8.7890625,0.0
1686971431.040232,-62.01171875,-39.0625,-61.5234375,-16.6015625,0.0
1686971431.0441358,-42.48046875,-36.62109375,-94.23828125,-22.94921875,0.0
1686971431.0480397,-3.41796875,-38.57421875,-35.15625,-19.53125,0.0
1686971431.051975,-2.44140625,-31.25,-70.3125,-17.08984375,0.0
1686971431.055879,-44.921875,-39.55078125,-122.55859375,-23.92578125,0.0
1686971431.059783,-31.25,-44.921875,-68.84765625,-28.80859375,0.0
1686971431.0636868,-4.39453125,-25.87890625,-32.2265625,-29.78515625,0.0
1686971431.0675907,8.30078125,-26.3671875,-14.6484375,-38.0859375,0.0
1686971431.0714946,-42.48046875,-34.1796875,-117.67578125,-43.45703125,0.0
1686971431.0753984,-51.7578125,-26.85546875,-146.484375,-36.62109375,0.0
1686971431.0793023,-20.5078125,-32.2265625,2.9296875,-36.62109375,0.0
1686971431.0832064,5.37109375,-32.71484375,21.484375,-22.94921875,0.0
1686971431.0871103,-31.25,-37.109375,-81.0546875,-18.06640625,0.0
1686971431.0910141,-61.03515625,-44.43359375,-77.63671875,-36.62109375,0.0
1686971431.094918,-20.01953125,-40.52734375,2.44140625,-40.52734375,0.0
1686971431.0988865,19.53125,-42.96875,1.953125,-31.25,0.0
1686971431.1027904,-3.90625,-40.0390625,-82.51953125,-26.3671875,0.0
1686971431.1066945,-57.6171875,-22.4609375,-101.5625,-26.3671875,0.0
1686971431.1105983,-41.50390625,-10.25390625,-61.5234375,-35.15625,0.0
1686971431.1145022,0.0,-26.85546875,-3.90625,-44.43359375,0.0
1686971431.118406,-7.8125,-39.55078125,-74.70703125,-41.015625,0.0
1686971431.12231,-68.359375,-38.57421875,-101.07421875,-44.43359375,0.0
1686971431.1262138,-50.78125,-36.62109375,1.953125,-42.96875,0.0
1686971431.130118,-5.859375,-34.66796875,-2.9296875,-22.4609375,0.0
1686971431.1340218,16.11328125,-31.73828125,-97.16796875,-1.953125,0.0
1686971431.1379256,-34.1796875,-20.01953125,-56.15234375,-20.01953125,0.0
1686971431.1418295,-44.921875,-15.625,5.37109375,-32.71484375,0.0
1686971431.1457784,-7.32421875,-22.4609375,-49.31640625,-27.83203125,0.0
1686971431.1496823,14.16015625,-22.94921875,-69.3359375,-18.5546875,0.0
1686971431.1535864,-21.484375,-27.34375,-25.390625,-18.06640625,0.0
1686971431.1574903,-60.05859375,-36.62109375,-84.9609375,-30.76171875,0.0
1686971431.1613941,-42.96875,-26.3671875,-74.70703125,-27.34375,0.0
1686971431.165298,-3.41796875,-24.4140625,-15.625,-10.7421875,0.0
1686971431.1692019,-17.578125,-24.4140625,-37.109375,-23.92578125,0.0
1686971431.1731057,-60.05859375,-25.390625,-51.7578125,-41.9921875,0.0
1686971431.1770096,-25.87890625,-27.34375,-35.64453125,-24.90234375,0.0
1686971431.1809137,14.6484375,-20.01953125,4.39453125,-15.13671875,0.0
1686971431.1848176,3.41796875,-18.5546875,28.3203125,-22.4609375,0.0
1686971431.1887214,-51.7578125,-23.92578125,-21.97265625,-34.1796875,0.0
1686971431.1926694,-37.109375,-25.390625,-110.83984375,-29.78515625,0.0
1686971431.1965733,-8.30078125,-19.04296875,-65.4296875,-16.6015625,0.0
1686971431.2004774,3.90625,-27.83203125,62.98828125,-13.671875,0.0
1686971431.2043812,-31.73828125,-48.33984375,-43.9453125,-18.5546875,0.0
1686971431.208285,-51.26953125,-43.45703125,-87.890625,-25.390625,0.0
1686971431.212189,-24.90234375,-23.4375,-35.15625,-35.15625,0.0
1686971431.2160928,3.41796875,-20.5078125,16.11328125,-26.85546875,0.0
1686971431.2199967,-24.90234375,-37.59765625,-2.44140625,-21.484375,0.0
1686971431.2239008,-61.03515625,-30.76171875,-137.6953125,-20.5078125,0.0
1686971431.2278047,-35.64453125,-10.25390625,-42.48046875,-16.11328125,0.0
1686971431.2317085,10.25390625,-20.99609375,71.77734375,-7.32421875,0.0
1686971431.2356124,4.8828125,-43.9453125,-8.30078125,-11.71875,0.0
1686971431.239558,-42.48046875,-36.62109375,-76.66015625,-19.53125,0.0
1686971431.2434618,-25.87890625,-18.5546875,-15.13671875,-22.94921875,0.0
1686971431.2473657,4.8828125,-14.16015625,5.859375,-26.3671875,0.0
1686971431.2512696,6.34765625,-30.76171875,-41.9921875,-17.08984375,0.0
1686971431.2551734,-56.640625,-43.45703125,-55.6640625,-32.2265625,0.0
1686971431.2590773,-50.29296875,-29.78515625,-74.21875,-20.99609375,0.0
1686971431.2629814,-0.9765625,-23.92578125,-37.59765625,-7.8125,0.0
1686971431.2668853,24.90234375,-36.1328125,-34.1796875,-5.859375,0.0
1686971431.2707891,-12.20703125,-37.59765625,-125.0,4.39453125,0.0
1686971431.274693,-40.52734375,-30.2734375,-24.4140625,-5.37109375,0.0
1686971431.2785969,-5.859375,-18.5546875,16.11328125,-6.8359375,0.0
1686971431.2825007,29.78515625,-2.44140625,-36.62109375,1.46484375,0.0
1686971431.2864437,-3.41796875,-3.41796875,-28.3203125,-12.20703125,0.0
1686971431.2903476,-47.36328125,-7.32421875,-16.11328125,-19.04296875,0.0
1686971431.2942514,-20.5078125,-3.41796875,-24.90234375,-2.9296875,0.0
1686971431.2981555,23.4375,-14.6484375,-60.05859375,20.01953125,0.0
1686971431.3020594,24.90234375,-7.32421875,-33.69140625,29.78515625,0.0
1686971431.3059633,-26.3671875,-2.9296875,-77.1484375,6.8359375,0.0
1686971431.3098671,-25.390625,-20.01953125,-80.56640625,-5.37109375,0.0
1686971431.313771,15.625,-14.6484375,-90.33203125,6.34765625,0.0
1686971431.317675,30.76171875,-18.06640625,-26.3671875,-0.48828125,0.0
1686971431.321579,-24.90234375,-19.04296875,37.109375,-20.5078125,0.0
1686971431.3254828,-26.85546875,-6.8359375,-24.4140625,-21.97265625,0.0
1686971431.3293867,6.8359375,-16.11328125,-19.04296875,-25.87890625,0.0
1686971431.3333259,26.85546875,-13.671875,41.015625,-18.5546875,0.0
1686971431.3372297,-6.8359375,-13.18359375,-11.71875,-7.32421875,0.0
1686971431.3411336,-39.0625,-11.71875,-90.33203125,-15.625,0.0
1686971431.3450377,-19.53125,-14.6484375,-53.22265625,-20.5078125,0.0
1686971431.3489416,22.94921875,-19.53125,39.0625,-0.9765625,0.0
1686971431.3528454,10.25390625,-20.99609375,-18.06640625,-5.37109375,0.0
1686971431.3567493,-37.109375,-28.3203125,-113.28125,-16.11328125,0.0
1686971431.3606532,-26.3671875,-31.25,-107.91015625,-6.34765625,0.0
1686971431.364557,2.44140625,-23.4375,42.48046875,-16.6015625,0.0
1686971431.3684611,-1.953125,-19.04296875,64.453125,-14.16015625,0.0
1686971431.372365,-43.9453125,-23.4375,-64.94140625,-12.20703125,0.0
1686971431.3762689,-24.4140625,-15.13671875,-45.41015625,-6.34765625,0.0
1686971431.3802059,7.8125,-6.34765625,23.92578125,-2.44140625,0.0
1686971431.3841097,15.625,-20.5078125,5.37109375,-7.8125,0.0
1686971431.3880138,-35.15625,-41.015625,-82.03125,-24.90234375,0.0
1686971431.3919177,-46.875,-38.0859375,-51.26953125,-45.41015625,0.0
1686971431.3958216,-18.5546875,-34.1796875,-27.83203125,-37.59765625,0.0
1686971431.3997254,-2.44140625,-42.96875,-62.01171875,-35.15625,0.0
1686971431.4036293,-28.80859375,-47.8515625,-148.92578125,-35.64453125,0.0
1686971431.4075332,-62.5,-48.828125,-92.28515625,-36.1328125,0.0
1686971431.4114373,-42.96875,-41.9921875,3.41796875,-46.875,0.0
1686971431.4153411,-7.32421875,-41.50390625,-55.17578125,-40.52734375,0.0
1686971431.419245,-21.97265625,-38.0859375,-66.89453125,-34.1796875,0.0
1686971431.4231489,-63.96484375,-42.96875,-36.1328125,-47.8515625,0.0
1686971431.427085,-47.36328125,-46.875,-24.4140625,-42.96875,0.0
1686971431.4309888,-9.27734375,-50.29296875,-28.80859375,-29.296875,0.0
1686971431.4348927,-15.625,-51.26953125,-61.5234375,-25.390625,0.0
1686971431.4387968,-74.21875,-35.64453125,-94.23828125,-41.015625,0.0
1686971431.4427006,-62.5,-35.15625,-39.55078125,-47.8515625,0.0
1686971431.4466045,-16.11328125,-41.9921875,-49.31640625,-33.69140625,0.0
1686971431.4505084,11.71875,-37.109375,-68.359375,-17.08984375,0.0
1686971431.4544122,-34.1796875,-46.875,-54.19921875,-25.390625,0.0
1686971431.4583163,-51.26953125,-53.7109375,-30.76171875,-41.9921875,0.0
1686971431.4622202,-17.578125,-54.19921875,-56.15234375,-36.62109375,0.0
1686971431.466124,7.32421875,-51.7578125,-49.8046875,-22.4609375,0.0
1686971431.470028,-23.4375,-48.33984375,-4.39453125,-27.83203125,0.0
1686971431.4740012,-51.7578125,-43.9453125,-37.109375,-24.4140625,0.0
1686971431.477905,-26.85546875,-31.25,-73.73046875,-8.30078125,0.0
1686971431.481809,9.765625,-32.71484375,-18.5546875,-11.23046875,0.0
1686971431.4857128,7.32421875,-20.5078125,15.625,-11.71875,0.0
1686971431.4896166,-36.62109375,-11.71875,-62.01171875,-17.578125,0.0
1686971431.4935205,-28.3203125,-34.66796875,-139.6484375,-20.01953125,0.0
1686971431.4974246,-7.32421875,-39.55078125,-54.6875,-16.6015625,0.0
1686971431.5013285,-5.37109375,-33.203125,34.66796875,-13.671875,0.0
1686971431.5052323,-50.29296875,-38.57421875,-45.41015625,-26.3671875,0.0
1686971431.5091362,-43.9453125,-37.59765625,-161.62109375,-30.2734375,0.0
1686971431.51304,-9.27734375,-37.109375,-80.078125,-25.87890625,0.0
1686971431.5169442,5.859375,-31.25,46.38671875,-18.5546875,0.0
1686971431.5208936,-35.15625,-37.109375,-37.109375,-20.5078125,0.0
1686971431.5247974,-47.8515625,-51.7578125,-65.91796875,-31.25,0.0
1686971431.5287013,-6.34765625,-44.43359375,-13.18359375,-32.71484375,0.0
1686971431.5326052,21.484375,-38.57421875,-27.83203125,-17.08984375,0.0
1686971431.5365093,-9.27734375,-35.64453125,-79.1015625,-0.9765625,0.0
1686971431.5404131,-45.8984375,-34.66796875,-108.3984375,-9.765625,0.0
1686971431.544317,-22.4609375,-36.62109375,-54.19921875,-5.37109375,0.0
1686971431.5482209,17.578125,-34.66796875,11.23046875,5.859375,0.0
1686971431.5521247,1.953125,-37.59765625,-53.7109375,0.48828125,0.0
1686971431.5560288,-53.22265625,-36.62109375,-94.23828125,-19.04296875,0.0
1686971431.5599327,-37.109375,-37.59765625,-16.11328125,-17.08984375,0.0
1686971431.5638366,-0.9765625,-44.921875,19.04296875,-5.859375,0.0
1686971431.5677838,4.39453125,-39.0625,-77.63671875,-11.23046875,0.0
1686971431.5716877,-50.29296875,-25.390625,-122.0703125,-21.97265625,0.0
1686971431.5755916,-52.24609375,-22.94921875,-4.39453125,-14.16015625,0.0
1686971431.5794957,-10.25390625,-27.34375,0.0,-12.6953125,0.0
1686971431.5833995,19.53125,-30.2734375,-70.3125,-20.99609375,0.0
1686971431.5873034,-26.85546875,-29.296875,-123.046875,-25.87890625,0.0
1686971431.5912073,-56.640625,-36.1328125,-82.51953125,-34.66796875,0.0
1686971431.5951111,-24.4140625,-36.1328125,-18.06640625,-29.78515625,0.0
1686971431.5990152,16.6015625,-38.57421875,-94.7265625,-22.4609375,0.0
1686971431.602919,6.8359375,-29.78515625,-69.3359375,-28.80859375,0.0
1686971431.606823,-23.92578125,-23.4375,-13.671875,-39.55078125,0.0
1686971431.6107268,7.8125,-26.85546875,-40.52734375,-37.59765625,0.0
1686971431.6146712,44.43359375,-25.390625,-34.66796875,-24.90234375,0.0
1686971431.618575,23.4375,-19.53125,-4.39453125,-12.20703125,0.0
1686971431.622479,-44.921875,-20.5078125,-70.3125,-20.01953125,0.0
1686971431.626383,-46.38671875,-29.78515625,-125.0,-31.73828125,0.0
1686971431.630287,-20.99609375,-46.38671875,-77.63671875,-28.3203125,0.0
1686971431.6341908,-15.625,-61.03515625,-35.15625,-23.92578125,0.0
1686971431.6380947,-62.98828125,-76.66015625,-60.05859375,-34.66796875,0.0
1686971431.6419985,-63.96484375,-60.05859375,-101.07421875,-24.4140625,0.0
1686971431.6459026,-24.90234375,-35.64453125,-130.37109375,-16.11328125,0.0
1686971431.6498065,3.41796875,-35.64453125,10.7421875,-20.5078125,0.0
1686971431.6537104,-19.53125,-33.203125,21.484375,-19.53125,0.0
1686971431.6576142,-50.78125,-32.71484375,-86.9140625,-22.94921875,0.0
1686971431.6615567,-42.48046875,-38.57421875,-40.52734375,-27.34375,0.0
1686971431.6654606,-12.6953125,-43.9453125,19.53125,-30.76171875,0.0
1686971431.6693645,-25.87890625,-46.38671875,-34.66796875,-32.2265625,0.0
1686971431.6732683,-64.453125,-45.8984375,-107.91015625,-30.2734375,0.0
1686971431.6771722,-45.41015625,-50.29296875,-51.7578125,-30.2734375,0.0
1686971431.6810763,-5.859375,-53.22265625,-36.62109375,-19.04296875,0.0
1686971431.6849802,-10.25390625,-38.0859375,-68.359375,-6.8359375,0.0
1686971431.688884,-72.265625,-46.875,-144.04296875,-27.34375,0.0
1686971431.692788,-59.5703125,-44.921875,-63.4765625,-38.57421875,0.0
1686971431.6966918,-21.484375,-25.87890625,53.22265625,-30.76171875,0.0
1686971431.7005959,-9.765625,-34.1796875,1.953125,-17.578125,0.0
1686971431.7044997,-62.98828125,-50.29296875,-72.75390625,-25.390625,0.0
1686971431.7084775,-77.63671875,-46.875,-30.2734375,-39.0625,0.0
1686971431.7123814,-33.203125,-38.57421875,4.8828125,-30.2734375,0.0
1686971431.7162855,6.34765625,-37.59765625,-40.52734375,-15.13671875,0.0
1686971431.7201893,-21.97265625,-41.015625,-89.35546875,-15.13671875,0.0
1686971431.7240932,-57.6171875,-41.9921875,-57.6171875,-21.97265625,0.0
1686971431.727997,-28.3203125,-30.2734375,-57.6171875,-23.92578125,0.0
1686971431.731901,5.859375,-35.15625,-79.58984375,-20.01953125,0.0
1686971431.735805,-12.20703125,-43.45703125,-129.8828125,-21.97265625,0.0
1686971431.739709,-62.5,-37.109375,-73.73046875,-30.76171875,0.0
1686971431.7436128,-40.0390625,-45.41015625,-45.41015625,-29.78515625,0.0
1686971431.7475166,-5.859375,-55.17578125,-72.265625,-27.34375,0.0
1686971431.7514205,-13.671875,-38.0859375,-12.20703125,-18.06640625,0.0
1686971431.755358,-70.80078125,-31.25,-19.53125,-25.390625,0.0
1686971431.7592618,-68.359375,-41.9921875,-73.73046875,-42.96875,0.0
1686971431.7631657,-25.87890625,-37.109375,-81.0546875,-34.66796875,0.0
1686971431.7670696,-1.953125,-31.25,-1.46484375,-18.06640625,0.0
1686971431.7709737,-39.55078125,-33.69140625,-17.08984375,-36.1328125,0.0
1686971431.7748775,-62.98828125,-31.25,-104.98046875,-51.7578125,0.0
1686971431.7787814,-38.0859375,-33.203125,-103.02734375,-46.38671875,0.0
1686971431.7826853,-7.32421875,-35.15625,2.9296875,-37.109375,0.0
1686971431.7865891,-34.1796875,-30.76171875,9.27734375,-41.9921875,0.0
1686971431.7904932,-65.91796875,-24.90234375,-63.96484375,-46.38671875,0.0
1686971431.794397,-39.0625,-21.97265625,-84.9609375,-33.203125,0.0
1686971431.798301,-4.8828125,-31.73828125,-35.64453125,-31.73828125,0.0
1686971431.8022366,0.48828125,-27.34375,7.8125,-20.01953125,0.0
1686971431.8061404,-42.48046875,-28.3203125,-46.875,-26.3671875,0.0
1686971431.8100445,-35.15625,-51.26953125,-150.87890625,-37.109375,0.0
1686971431.8139484,-7.32421875,-46.38671875,-55.6640625,-29.78515625,0.0
1686971431.8178523,3.90625,-30.76171875,43.45703125,-26.3671875,0.0
1686971431.8217561,-41.9921875,-28.80859375,-84.47265625,-36.62109375,0.0
1686971431.82566,-47.8515625,-33.69140625,-128.90625,-38.57421875,0.0
1686971431.829564,-6.34765625,-27.83203125,17.578125,-29.78515625,0.0
1686971431.833468,25.390625,-15.625,47.36328125,-14.16015625,0.0
1686971431.8373718,-26.3671875,-13.671875,-54.19921875,-18.06640625,0.0
1686971431.8412757,-59.5703125,-24.90234375,-54.19921875,-32.71484375,0.0
1686971431.8451796,-22.4609375,-33.69140625,23.4375,-28.80859375,0.0
1686971431.8491304,12.20703125,-35.15625,20.99609375,-7.32421875,0.0
1686971431.8530343,-16.11328125,-32.71484375,-64.94140625,-9.765625,0.0
1686971431.8569381,-60.546875,-40.0390625,-101.07421875,-21.97265625,0.0
1686971431.860842,-35.15625,-35.15625,-24.90234375,-22.94921875,0.0
1686971431.864746,10.25390625,-14.6484375,34.1796875,-20.99609375,0.0
1686971431.86865,11.23046875,-10.25390625,-52.24609375,-13.18359375,0.0
1686971431.8725538,-41.9921875,-14.6484375,-91.30859375,-23.4375,0.0
1686971431.8764577,-31.73828125,-15.625,-0.48828125,-21.97265625,0.0
1686971431.8803618,7.8125,-19.04296875,9.27734375,-4.39453125,0.0
1686971431.8842657,19.53125,-37.109375,-94.23828125,7.8125,0.0
1686971431.8881695,-38.57421875,-40.52734375,-57.6171875,-12.6953125,0.0
1686971431.8920734,-45.8984375,-35.64453125,11.23046875,-31.25,0.0
1686971431.896022,-13.18359375,-29.296875,-16.6015625,-25.87890625,0.0
1686971431.8999262,9.765625,-17.578125,-13.18359375,-13.671875,0.0
1686971431.90383,-23.92578125,-9.27734375,-26.3671875,-13.18359375,0.0
1686971431.907734,-51.7578125,-25.390625,-80.56640625,-15.13671875,0.0
1686971431.9116378,-33.203125,-45.41015625,-76.66015625,-20.99609375,0.0
1686971431.915542,-5.37109375,-38.0859375,-49.8046875,-30.76171875,0.0
1686971431.9194458,-15.625,-33.69140625,-67.3828125,-25.87890625,0.0
1686971431.9233496,-65.91796875,-33.69140625,-62.5,-25.390625,0.0
1686971431.9272535,-48.33984375,-21.97265625,-60.05859375,-30.2734375,0.0
1686971431.9311574,0.0,-13.18359375,-41.015625,-20.99609375,0.0
1686971431.9350615,8.30078125,-4.8828125,25.87890625,-9.765625,0.0
1686971431.9389653,-42.96875,-7.8125,-27.83203125,-19.04296875,0.0
1686971431.942913,-42.48046875,-13.671875,-108.3984375,-19.53125,0.0
1686971431.9468172,-7.32421875,-27.34375,-49.31640625,-20.99609375,0.0
1686971431.950721,10.25390625,-45.41015625,39.0625,-23.4375,0.0
1686971431.954625,-43.9453125,-31.25,-14.6484375,-31.73828125,0.0
1686971431.9585288,-53.22265625,-14.6484375,-79.58984375,-28.3203125,0.0
1686971431.9624326,-11.71875,-11.71875,-77.63671875,-14.6484375,0.0
1686971431.9663367,12.20703125,-9.765625,-0.9765625,-16.6015625,0.0
1686971431.9702406,-21.97265625,-5.859375,-15.13671875,-20.99609375,0.0
1686971431.9741445,-48.33984375,-16.11328125,-142.08984375,-11.23046875,0.0
1686971431.9780483,-17.08984375,-25.87890625,-46.875,-12.6953125,0.0
1686971431.9819524,22.94921875,-24.4140625,73.2421875,-16.11328125,0.0
1686971431.9858563,1.953125,-45.41015625,-1.46484375,-15.625,0.0
1686971431.9898016,-41.50390625,-45.8984375,-73.2421875,-23.92578125,0.0
1686971431.9937057,-22.4609375,-37.109375,-2.9296875,-12.20703125,0.0
1686971431.9976096,13.18359375,-27.83203125,5.37109375,1.953125,0.0
1686971432.0015135,17.08984375,-10.25390625,-52.734375,-2.44140625,0.0
1686971432.0054173,-52.734375,-17.08984375,-49.8046875,-25.87890625,0.0
1686971432.0093215,-53.7109375,-27.34375,-54.19921875,-24.90234375,0.0
1686971432.0132253,-11.71875,-24.90234375,-29.78515625,-7.32421875,0.0
1686971432.0171292,8.30078125,-27.83203125,-30.2734375,5.37109375,0.0
1686971432.021033,-33.203125,-46.38671875,-111.328125,-6.34765625,0.0
1686971432.024937,-47.8515625,-58.59375,-5.37109375,-17.578125,0.0
1686971432.028841,-7.32421875,-37.59765625,22.4609375,-3.41796875,0.0
1686971432.032745,21.484375,-18.06640625,-23.4375,-12.20703125,0.0
1686971432.0366883,-8.30078125,-23.4375,0.48828125,-17.578125,0.0
1686971432.0405922,-45.8984375,-26.85546875,-13.18359375,-18.06640625,0.0
1686971432.044496,-30.2734375,-22.4609375,-24.4140625,-25.390625,0.0
1686971432.0484,6.8359375,-25.390625,-37.59765625,-12.20703125,0.0
1686971432.052304,0.48828125,-38.0859375,-13.18359375,-12.6953125,0.0
1686971432.056208,-57.6171875,-51.7578125,-64.94140625,-38.0859375,0.0
1686971432.0601118,-44.921875,-40.0390625,-93.75,-29.296875,0.0
1686971432.0640156,-3.41796875,-24.90234375,-107.91015625,-2.44140625,0.0
1686971432.0679197,2.9296875,-26.85546875,-31.73828125,-3.41796875,0.0
1686971432.0718236,-48.828125,-25.87890625,17.578125,-21.484375,0.0
1686971432.0757275,-43.9453125,-26.3671875,-40.52734375,-19.04296875,0.0
1686971432.0796313,-5.859375,-37.59765625,-46.38671875,-21.484375,0.0
1686971432.0835726,13.18359375,-53.7109375,4.39453125,-26.3671875,0.0
1686971432.0874767,-21.97265625,-41.50390625,-53.22265625,-17.08984375,0.0
1686971432.0913806,-38.0859375,-15.625,-117.1875,-19.04296875,0.0
1686971432.0952845,-19.53125,-13.671875,-65.91796875,-24.90234375,0.0
1686971432.0991883,11.71875,-23.4375,8.30078125,-13.18359375,0.0
1686971432.1030924,-9.765625,-32.2265625,-57.12890625,-12.20703125,0.0
1686971432.1069963,-50.78125,-41.015625,-130.859375,-19.04296875,0.0
1686971432.1109002,-27.34375,-44.43359375,-132.8125,-12.20703125,0.0
1686971432.114804,9.27734375,-38.57421875,-8.30078125,-11.71875,0.0
1686971432.118708,2.44140625,-32.71484375,7.32421875,-10.25390625,0.0
1686971432.122612,-47.8515625,-38.57421875,-104.00390625,-23.92578125,0.0
1686971432.1265159,-36.62109375,-41.9921875,-51.7578125,-23.4375,0.0
1686971432.1304548,-10.25390625,-29.296875,19.04296875,-14.6484375,0.0
1686971432.1343586,-6.8359375,-22.4609375,-12.20703125,-19.53125,0.0
1686971432.1382627,-55.17578125,-35.15625,-100.09765625,-22.4609375,0.0
1686971432.1421666,-59.08203125,-41.015625,-86.42578125,-25.390625,0.0
1686971432.1460705,-17.578125,-30.2734375,-55.6640625,-24.90234375,0.0
1686971432.1499743,5.859375,-33.203125,-50.29296875,-15.625,0.0
1686971432.1538785,-34.1796875,-26.85546875,-127.9296875,-12.20703125,0.0
1686971432.1577823,-54.19921875,-17.578125,-83.0078125,-20.01953125,0.0
1686971432.1616862,-14.6484375,-32.2265625,29.296875,-19.04296875,0.0
1686971432.16559,24.90234375,-30.76171875,8.7890625,-11.23046875,0.0
1686971432.1694942,0.48828125,-19.04296875,-64.453125,-14.6484375,0.0
1686971432.173398,-55.6640625,-38.0859375,-54.19921875,-23.92578125,0.0
1686971432.1773336,-46.875,-62.5,-17.578125,-25.87890625,0.0
1686971432.1812377,5.37109375,-40.0390625,-24.90234375,-7.8125,0.0
1686971432.1851416,14.16015625,-20.5078125,-61.5234375,1.953125,0.0
1686971432.1890454,-48.33984375,-20.01953125,-99.609375,-9.27734375,0.0
1686971432.1929493,-40.52734375,-19.04296875,-24.90234375,-3.41796875,0.0
1686971432.1968534,4.8828125,-5.37109375,-44.921875,8.30078125,0.0
1686971432.2007573,19.53125,-3.90625,-103.515625,11.71875,0.0
1686971432.2046611,-34.1796875,-13.18359375,-40.0390625,-8.30078125,0.0
1686971432.208565,-39.55078125,-18.06640625,-2.44140625,-22.94921875,0.0
1686971432.212469,3.90625,-25.87890625,-48.33984375,-13.18359375,0.0
1686971432.216373,26.3671875,-37.59765625,-31.73828125,-4.39453125,0.0
1686971432.2202768,-18.5546875,-38.57421875,-4.39453125,-8.7890625,0.0
1686971432.2242289,-46.875,-27.34375,-46.875,-8.7890625,0.0
1686971432.228133,-10.7421875,-17.578125,-88.37890625,-14.16015625,0.0
1686971432.2320368,26.85546875,-17.08984375,-22.4609375,-18.06640625,0.0
1686971432.2359407,-1.953125,-9.27734375,1.953125,-26.85546875,0.0
1686971432.2398446,-58.59375,-5.859375,-73.2421875,-25.390625,0.0
1686971432.2437487,-25.87890625,-19.04296875,-128.41796875,-3.90625,0.0
1686971432.2476525,1.46484375,-33.203125,-57.6171875,-14.16015625,0.0
1686971432.2515564,-0.9765625,-41.9921875,20.5078125,-27.83203125,0.0
1686971432.2554603,-35.64453125,-34.66796875,-67.3828125,-30.76171875,0.0
1686971432.2593644,-37.109375,-26.3671875,-175.29296875,-27.34375,0.0
1686971432.2632682,-10.7421875,-24.4140625,-53.22265625,-20.01953125,0.0
1686971432.267172,8.7890625,-20.01953125,55.6640625,-13.671875,0.0
1686971432.271121,-39.0625,-21.484375,-56.640625,-27.34375,0.0
1686971432.275025,-53.7109375,-22.4609375,-94.23828125,-33.203125,0.0
1686971432.2789288,-15.13671875,-26.3671875,-42.48046875,-23.4375,0.0
1686971432.2828326,12.20703125,-37.59765625,-61.5234375,-18.06640625,0.0
1686971432.2867367,-29.296875,-51.7578125,-88.8671875,-34.1796875,0.0
1686971432.2906406,-71.2890625,-54.19921875,-101.5625,-41.015625,0.0
