time,TP9,AF7,AF8,TP10,Right AUX
1687369131.6666942,33.203125,-459.47265625,-26.3671875,15.13671875,0.0
1687369131.6705794,-33.69140625,229.00390625,-41.50390625,-21.97265625,0.0
1687369131.6744645,-50.29296875,356.4453125,-43.45703125,-24.90234375,0.0
1687369131.6783497,-20.01953125,-31.25,-35.15625,-5.37109375,0.0
1687369131.682235,46.38671875,-301.26953125,-24.4140625,9.27734375,0.0
1687369131.68612,-18.06640625,-203.125,-15.13671875,-14.6484375,0.0
1687369131.6900053,-35.15625,-118.65234375,-21.97265625,-16.6015625,0.0
1687369131.6938906,-33.203125,-145.01953125,-34.1796875,-4.39453125,0.0
1687369131.6977758,38.57421875,-166.50390625,-38.0859375,19.04296875,0.0
1687369131.7016609,3.41796875,-116.69921875,-41.50390625,6.34765625,0.0
1687369131.7055461,-35.64453125,30.76171875,-35.64453125,-25.87890625,0.0
1687369131.7094314,-44.921875,-426.26953125,-24.90234375,-25.87890625,0.0
1687369131.7135408,3.41796875,-638.671875,-29.296875,-2.44140625,0.0
1687369131.717426,14.16015625,-1.953125,-29.296875,-8.7890625,0.0
1687369131.7213113,-56.640625,72.265625,-24.90234375,-30.76171875,0.0
1687369131.7251966,-63.96484375,8.7890625,-29.296875,-32.71484375,0.0
1687369131.7290819,-17.578125,40.0390625,-39.0625,-4.8828125,0.0
1687369131.7329671,37.59765625,-283.69140625,-37.59765625,9.27734375,0.0
1687369131.7368522,-38.0859375,-363.76953125,-27.83203125,-23.92578125,0.0
1687369131.7407374,-59.08203125,-399.90234375,-34.1796875,-27.34375,0.0
1687369131.7446227,-36.62109375,-127.9296875,-33.69140625,-5.37109375,0.0
1687369131.748508,41.015625,14.6484375,-36.1328125,20.99609375,0.0
1687369131.7523932,-19.53125,-313.4765625,-36.62109375,0.48828125,0.0
1687369131.7562785,-50.78125,-342.28515625,-26.85546875,-14.6484375,0.0
1687369131.760376,-49.31640625,-10.7421875,-19.04296875,-11.71875,0.0
1687369131.7642612,19.04296875,-229.98046875,-17.578125,9.27734375,0.0
1687369131.7681465,-4.39453125,-305.17578125,-25.390625,-2.9296875,0.0
1687369131.7720318,-56.15234375,60.05859375,-18.06640625,-21.484375,0.0
1687369131.775917,-47.8515625,240.234375,-10.25390625,-15.13671875,0.0
1687369131.7798023,2.9296875,-178.7109375,-20.5078125,-3.90625,0.0
1687369131.7836876,12.6953125,-818.84765625,-27.83203125,0.9765625,0.0
1687369131.7875729,-51.7578125,-546.38671875,-25.390625,-22.4609375,0.0
1687369131.7914581,-53.7109375,292.96875,-27.83203125,-30.76171875,0.0
1687369131.7953434,-18.5546875,42.96875,-36.62109375,-3.41796875,0.0
1687369131.7992287,38.0859375,-398.4375,-36.62109375,17.08984375,0.0
1687369131.803114,-39.0625,-12.6953125,-35.15625,-14.16015625,0.0
1687369131.8072035,-50.78125,309.5703125,-31.25,-33.203125,0.0
1687369131.811089,-33.203125,42.96875,-30.76171875,-29.296875,0.0
1687369131.8149743,32.2265625,-395.01953125,-29.78515625,-18.06640625,0.0
1687369131.8188596,-15.625,-282.2265625,-22.4609375,-28.3203125,0.0
1687369131.8227448,-41.50390625,79.58984375,-23.92578125,-36.62109375,0.0
1687369131.82663,-47.36328125,-94.23828125,-33.203125,-29.296875,0.0
1687369131.8305154,19.53125,-789.55078125,-34.1796875,5.37109375,0.0
1687369131.8344007,2.44140625,-590.33203125,-21.97265625,-6.8359375,0.0
1687369131.8382862,-59.08203125,232.421875,-27.34375,-41.9921875,0.0
1687369131.8421714,-51.26953125,15.13671875,-29.78515625,-36.62109375,0.0
1687369131.8460567,-3.90625,-444.3359375,-23.92578125,-10.7421875,0.0
1687369131.849942,15.625,-112.3046875,-30.2734375,-12.20703125,0.0
1687369131.8541105,-50.29296875,125.48828125,-26.85546875,-44.921875,0.0
1687369131.8579957,-53.7109375,-36.1328125,-29.296875,-44.43359375,0.0
1687369131.861881,-30.76171875,-83.984375,-32.71484375,-15.625,0.0
1687369131.8657665,38.57421875,-80.56640625,-27.34375,3.90625,0.0
1687369131.8696518,-29.78515625,56.15234375,-22.94921875,-29.296875,0.0
1687369131.873537,-47.36328125,-83.984375,-15.625,-30.76171875,0.0
1687369131.8774226,-29.78515625,-315.91796875,-14.6484375,-14.6484375,0.0
1687369131.8813078,33.203125,-321.77734375,-28.80859375,5.859375,0.0
1687369131.885193,-6.34765625,-104.98046875,-36.1328125,-5.37109375,0.0
1687369131.8890786,-36.62109375,-279.296875,-35.64453125,-30.76171875,0.0
1687369131.892964,-38.57421875,-268.06640625,-35.64453125,-38.0859375,0.0
1687369131.8968492,26.3671875,-19.04296875,-30.76171875,-7.32421875,0.0
1687369131.9010031,19.53125,-185.546875,-30.76171875,-10.7421875,0.0
1687369131.9048886,-56.640625,-136.71875,-33.203125,-37.109375,0.0
1687369131.908774,-55.17578125,177.734375,-30.76171875,-32.71484375,0.0
1687369131.9126594,-4.39453125,104.98046875,-32.71484375,-16.6015625,0.0
1687369131.9165447,31.25,-299.8046875,-27.34375,-7.8125,0.0
1687369131.9204302,-42.48046875,-357.421875,-32.71484375,-27.34375,0.0
1687369131.9243155,-53.22265625,-186.5234375,-40.52734375,-35.15625,0.0
1687369131.928201,-30.76171875,-206.0546875,-30.2734375,-18.5546875,0.0
1687369131.9320865,35.64453125,-638.18359375,-24.4140625,6.8359375,0.0
1687369131.9359717,-27.34375,-792.48046875,-31.73828125,-10.7421875,0.0
1687369131.9398572,-50.78125,-48.33984375,-37.109375,-25.390625,0.0
1687369131.9437425,-41.015625,338.8671875,-33.203125,-28.80859375,0.0
1687369131.9478877,29.78515625,-288.0859375,-41.015625,-4.39453125,0.0
1687369131.951773,-15.625,-402.83203125,-44.43359375,-14.6484375,0.0
1687369131.9556584,-70.3125,224.12109375,-51.26953125,-36.62109375,0.0
1687369131.959544,-66.40625,320.3125,-61.03515625,-25.87890625,0.0
1687369131.9634295,-0.9765625,-177.24609375,-36.62109375,-3.41796875,0.0
1687369131.9673147,-2.44140625,-585.9375,-20.5078125,-3.41796875,0.0
1687369131.9712002,-70.80078125,-182.6171875,-20.5078125,-33.203125,0.0
1687369131.9750857,-68.84765625,274.4140625,-19.04296875,-33.203125,0.0
1687369131.978971,-29.296875,-425.78125,-34.1796875,-2.9296875,0.0
1687369131.9828565,24.90234375,-679.6875,-52.734375,3.41796875,0.0
1687369131.986742,-49.31640625,182.6171875,-47.36328125,-33.69140625,0.0
1687369131.9906275,-54.6875,198.73046875,-29.296875,-38.57421875,0.0
1687369131.9947617,-27.34375,-72.265625,-29.78515625,-15.625,0.0
1687369131.9986472,37.109375,-115.72265625,-36.1328125,-0.9765625,0.0
1687369132.0025327,-27.34375,113.76953125,-31.73828125,-28.3203125,0.0
1687369132.006418,-56.640625,114.2578125,-24.4140625,-39.0625,0.0
1687369132.0103035,-33.69140625,-110.3515625,-29.78515625,-22.4609375,0.0
1687369132.014189,54.6875,-376.953125,-32.71484375,26.3671875,0.0
1687369132.0180745,10.7421875,-483.3984375,-26.85546875,6.34765625,0.0
1687369132.02196,-63.96484375,-314.453125,-31.25,-44.43359375,0.0
1687369132.0258455,-48.828125,-561.03515625,-26.3671875,-29.78515625,0.0
1687369132.029731,15.13671875,-356.93359375,-19.53125,-2.44140625,0.0
1687369132.0336165,16.11328125,-43.45703125,-23.92578125,-14.6484375,0.0
1687369132.037502,-43.9453125,-60.546875,-26.3671875,-36.62109375,0.0
1687369132.0416317,-43.45703125,61.5234375,-22.94921875,-33.203125,0.0
1687369132.0455172,-23.92578125,131.8359375,-27.34375,-15.625,0.0
1687369132.0494027,46.38671875,-310.05859375,-32.2265625,6.34765625,0.0
1687369132.0532882,-33.69140625,-301.26953125,-38.0859375,-24.4140625,0.0
1687369132.0571737,-62.01171875,107.91015625,-35.64453125,-40.52734375,0.0
1687369132.0610595,-39.55078125,-100.09765625,-28.80859375,-25.87890625,0.0
1687369132.064945,45.41015625,-475.5859375,-33.69140625,9.765625,0.0
1687369132.0688305,-8.7890625,-714.84375,-31.25,2.44140625,0.0
1687369132.072716,-51.26953125,-408.203125,-19.04296875,-28.3203125,0.0
1687369132.0766015,-44.921875,257.8125,-17.08984375,-32.71484375,0.0
1687369132.080487,25.87890625,-60.546875,-19.53125,1.46484375,0.0
1687369132.0843725,16.6015625,-303.22265625,-20.5078125,-0.48828125,0.0
1687369132.0884936,-45.8984375,144.04296875,-28.80859375,-29.296875,0.0
1687369132.092379,-60.05859375,374.0234375,-38.0859375,-32.2265625,0.0
1687369132.0962648,-1.46484375,-50.78125,-33.203125,-0.48828125,0.0
1687369132.1001503,30.76171875,-379.8828125,-26.85546875,10.25390625,0.0
1687369132.1040359,-41.9921875,-8.7890625,-26.85546875,-20.5078125,0.0
1687369132.1079214,-46.38671875,0.48828125,-26.3671875,-33.69140625,0.0
1687369132.111807,-17.578125,-403.3203125,-22.4609375,-21.484375,0.0
1687369132.1156926,50.29296875,-897.4609375,-15.13671875,8.30078125,0.0
1687369132.1195781,-23.4375,-372.55859375,-18.5546875,-16.6015625,0.0
1687369132.1234636,-47.8515625,305.17578125,-26.85546875,-30.2734375,0.0
1687369132.1273491,-28.3203125,31.73828125,-23.92578125,-7.8125,0.0
1687369132.131235,32.2265625,-308.10546875,-26.3671875,13.18359375,0.0
1687369132.135336,-11.71875,6.34765625,-31.73828125,-10.7421875,0.0
1687369132.1392214,-40.0390625,311.5234375,-46.875,-31.25,0.0
1687369132.1431072,-44.921875,57.6171875,-47.36328125,-28.3203125,0.0
1687369132.1469927,12.6953125,-159.66796875,-30.2734375,-12.20703125,0.0
1687369132.1508782,-0.48828125,-128.90625,-19.53125,-18.06640625,0.0
1687369132.154764,-66.89453125,-32.71484375,-18.06640625,-36.1328125,0.0
1687369132.1586494,-62.98828125,-435.546875,-25.87890625,-25.390625,0.0
1687369132.162535,-18.06640625,-808.59375,-34.66796875,-6.8359375,0.0
1687369132.1664207,27.34375,-345.703125,-37.59765625,3.41796875,0.0
1687369132.1703062,-45.41015625,25.390625,-40.0390625,-26.3671875,0.0
1687369132.174192,-50.78125,52.24609375,-46.38671875,-34.1796875,0.0
1687369132.1780775,-34.66796875,76.171875,-41.9921875,-15.13671875,0.0
1687369132.1821644,31.73828125,-58.59375,-27.34375,5.859375,0.0
1687369132.18605,-18.5546875,-84.9609375,-24.4140625,-9.27734375,0.0
1687369132.1899357,-56.15234375,-4.8828125,-28.3203125,-30.2734375,0.0
1687369132.1938212,-53.22265625,183.59375,-34.1796875,-24.90234375,0.0
1687369132.197707,32.2265625,-67.87109375,-34.66796875,5.37109375,0.0
1687369132.2015924,3.90625,-436.03515625,-23.92578125,-15.625,0.0
1687369132.2054782,-45.8984375,-490.72265625,-21.484375,-39.0625,0.0
1687369132.2093637,-50.29296875,-217.28515625,-31.73828125,-35.15625,0.0
1687369132.2132494,12.6953125,63.96484375,-30.76171875,-1.953125,0.0
1687369132.217135,29.78515625,-269.04296875,-35.64453125,6.8359375,0.0
1687369132.2210207,-46.38671875,-384.27734375,-48.828125,-36.62109375,0.0
1687369132.2249064,-57.12890625,169.921875,-43.45703125,-54.6875,0.0
1687369132.2290726,-10.7421875,198.2421875,-35.64453125,-21.97265625,0.0
1687369132.232958,41.9921875,-294.921875,-30.2734375,1.953125,0.0
1687369132.2368438,-43.45703125,-109.86328125,-34.66796875,-26.85546875,0.0
1687369132.2407296,-50.29296875,304.19921875,-40.52734375,-33.203125,0.0
1687369132.2446153,-37.109375,182.6171875,-41.50390625,-13.18359375,0.0
1687369132.2485008,40.0390625,-477.05078125,-42.96875,24.4140625,0.0
1687369132.2523866,-3.90625,-417.48046875,-39.55078125,-2.9296875,0.0
1687369132.2562723,-44.43359375,216.796875,-38.57421875,-46.875,0.0
1687369132.260158,-47.8515625,241.2109375,-43.9453125,-40.0390625,0.0
1687369132.2640436,18.06640625,-424.8046875,-47.36328125,-0.9765625,0.0
1687369132.2679293,3.90625,-373.046875,-43.45703125,-9.27734375,0.0
1687369132.271815,-52.24609375,324.21875,-34.1796875,-44.921875,0.0
1687369132.2759738,-61.03515625,195.80078125,-34.1796875,-35.64453125,0.0
1687369132.2798595,1.953125,-381.8359375,-38.0859375,4.8828125,0.0
1687369132.2837453,27.34375,-300.29296875,-31.25,12.20703125,0.0
1687369132.287631,-51.7578125,274.90234375,-28.80859375,-31.25,0.0
1687369132.2915165,-52.24609375,208.984375,-32.2265625,-36.1328125,0.0
1687369132.2954023,-15.13671875,-284.1796875,-32.2265625,3.41796875,0.0
1687369132.299288,44.43359375,-486.81640625,-28.80859375,19.04296875,0.0
1687369132.3031738,-25.87890625,-197.75390625,-26.85546875,-22.94921875,0.0
1687369132.3070595,-51.26953125,-137.6953125,-34.66796875,-42.48046875,0.0
1687369132.3109453,-34.1796875,-438.96484375,-31.25,-15.13671875,0.0
1687369132.314831,48.828125,-270.01953125,-17.08984375,14.6484375,0.0
1687369132.3187168,-2.44140625,114.2578125,-22.94921875,-12.6953125,0.0
1687369132.3228574,-35.64453125,126.46484375,-31.73828125,-30.2734375,0.0
1687369132.3267431,-33.69140625,143.5546875,-33.203125,-21.484375,0.0
1687369132.3306289,19.53125,112.3046875,-33.69140625,-0.9765625,0.0
1687369132.3345146,13.18359375,-143.06640625,-31.25,-3.90625,0.0
1687369132.3384004,-52.24609375,-113.76953125,-38.0859375,-16.11328125,0.0
1687369132.342286,-63.4765625,-121.09375,-45.41015625,-26.3671875,0.0
1687369132.3461719,-10.25390625,-222.16796875,-47.36328125,-16.11328125,0.0
1687369132.3500576,16.11328125,-121.58203125,-36.1328125,-6.34765625,0.0
1687369132.3539433,-55.17578125,-434.5703125,-22.4609375,-22.94921875,0.0
1687369132.357829,-59.5703125,-328.61328125,-29.78515625,-28.3203125,0.0
1687369132.3617148,-26.3671875,209.47265625,-40.0390625,-13.18359375,0.0
1687369132.3656008,44.921875,-112.3046875,-44.921875,5.37109375,0.0
1687369132.3697355,-34.1796875,-154.78515625,-36.1328125,-22.94921875,0.0
1687369132.3736212,-58.59375,197.75390625,-32.2265625,-36.1328125,0.0
1687369132.3775072,-43.45703125,396.97265625,-40.0390625,-24.4140625,0.0
1687369132.381393,27.83203125,-96.6796875,-41.9921875,1.953125,0.0
1687369132.3852787,-26.85546875,-271.97265625,-43.45703125,-12.20703125,0.0
1687369132.3891644,-64.94140625,-5.859375,-44.921875,-35.64453125,0.0
1687369132.3930504,-60.05859375,-50.78125,-37.109375,-32.71484375,0.0
1687369132.3969362,7.32421875,-463.37890625,-36.1328125,6.34765625,0.0
1687369132.400822,17.08984375,-754.39453125,-37.59765625,23.4375,0.0
1687369132.4047077,-54.19921875,37.59765625,-33.69140625,-19.04296875,0.0
1687369132.4085937,-58.10546875,449.70703125,-26.3671875,-32.71484375,0.0
1687369132.4124794,-20.01953125,-78.61328125,-38.0859375,-12.20703125,0.0
1687369132.4166067,28.3203125,-282.71484375,-58.59375,-0.48828125,0.0
1687369132.4204926,-48.828125,198.2421875,-51.7578125,-30.76171875,0.0
1687369132.4243784,-62.01171875,415.0390625,-39.55078125,-40.52734375,0.0
1687369132.4282644,-35.15625,38.0859375,-37.59765625,-19.53125,0.0
1687369132.4321501,35.64453125,-265.625,-31.25,-0.9765625,0.0
1687369132.4360359,-16.6015625,-151.85546875,-21.97265625,-18.06640625,0.0
1687369132.4399219,-36.1328125,31.73828125,-22.94921875,-30.2734375,0.0
1687369132.4438076,-35.64453125,-368.1640625,-26.3671875,-13.671875,0.0
1687369132.4476936,33.203125,-680.6640625,-21.97265625,13.671875,0.0
1687369132.4515793,7.32421875,-188.4765625,-21.484375,-10.25390625,0.0
1687369132.4554653,-47.8515625,79.1015625,-23.4375,-30.76171875,0.0
1687369132.459351,-59.08203125,158.203125,-27.34375,-26.3671875,0.0
1687369132.4634635,7.8125,104.4921875,-24.4140625,3.90625,0.0
1687369132.4673493,19.53125,43.45703125,-12.20703125,6.34765625,0.0
1687369132.4712353,-50.29296875,81.0546875,-15.13671875,-29.78515625,0.0
1687369132.475121,-44.43359375,146.484375,-22.4609375,-32.2265625,0.0
1687369132.479007,-17.578125,125.0,-27.83203125,-12.6953125,0.0
1687369132.482893,28.80859375,-274.90234375,-27.34375,-0.48828125,0.0
1687369132.4867787,-27.83203125,-322.265625,-31.25,-16.6015625,0.0
1687369132.4906647,-35.64453125,-432.6171875,-37.59765625,-19.04296875,0.0
1687369132.4945505,-18.5546875,-82.03125,-28.80859375,-17.08984375,0.0
1687369132.4984365,57.6171875,171.38671875,-18.06640625,10.7421875,0.0
1687369132.5023224,-6.34765625,5.859375,-19.04296875,-8.30078125,0.0
1687369132.5062082,-33.69140625,210.9375,-26.85546875,-31.73828125,0.0
1687369132.5103872,-40.52734375,312.98828125,-30.2734375,-23.4375,0.0
1687369132.5142732,16.11328125,117.1875,-40.0390625,7.8125,0.0
1687369132.5181592,5.37109375,-37.59765625,-45.8984375,13.18359375,0.0
1687369132.5220451,-47.8515625,270.5078125,-38.0859375,-24.90234375,0.0
1687369132.5259311,-41.015625,435.546875,-23.92578125,-27.34375,0.0
1687369132.5298169,9.27734375,3.41796875,-15.13671875,-7.32421875,0.0
1687369132.5337029,19.04296875,-673.828125,-18.5546875,0.0,0.0
1687369132.5375888,-47.8515625,-396.97265625,-20.99609375,-17.578125,0.0
1687369132.5414748,-39.55078125,460.44921875,-27.83203125,-20.99609375,0.0
1687369132.5453608,-13.18359375,211.42578125,-25.87890625,-0.48828125,0.0
1687369132.5492465,39.55078125,-235.3515625,-23.4375,12.6953125,0.0
1687369132.5531325,-34.66796875,129.39453125,-29.78515625,-13.18359375,0.0
1687369132.5572207,-41.50390625,506.8359375,-28.3203125,-25.87890625,0.0
1687369132.5611067,-17.578125,267.08984375,-19.53125,-13.671875,0.0
1687369132.5649927,44.921875,-392.08984375,-18.5546875,15.13671875,0.0
1687369132.5688787,6.34765625,-233.3984375,-20.99609375,-0.9765625,0.0
1687369132.5727646,-21.484375,308.59375,-20.01953125,-21.484375,0.0
1687369132.5766506,-57.12890625,47.8515625,-16.11328125,-24.4140625,0.0
1687369132.5805364,-13.671875,-456.54296875,-22.94921875,-11.71875,0.0
1687369132.5844223,3.90625,-460.9375,-33.203125,-8.30078125,0.0
1687369132.5883083,-57.6171875,224.609375,-31.73828125,-41.9921875,0.0
1687369132.5921943,-65.4296875,159.1796875,-26.3671875,-50.78125,0.0
1687369132.5960803,-22.4609375,-532.2265625,-26.85546875,-20.99609375,0.0
1687369132.5999663,11.71875,-228.515625,-32.71484375,-8.30078125,0.0
1687369132.6041238,-54.6875,281.25,-37.109375,-34.66796875,0.0
1687369132.6080098,-49.31640625,240.234375,-26.3671875,-38.0859375,0.0
1687369132.611896,-24.90234375,114.74609375,-25.87890625,-6.34765625,0.0
1687369132.615782,42.96875,26.3671875,-32.71484375,16.6015625,0.0
1687369132.619668,-19.53125,100.09765625,-21.484375,-16.11328125,0.0
1687369132.623554,-53.7109375,14.16015625,-17.578125,-37.109375,0.0
1687369132.62744,-49.31640625,-219.23828125,-21.484375,-29.78515625,0.0
1687369132.631326,22.94921875,-229.4921875,-19.04296875,3.90625,0.0
1687369132.635212,-8.30078125,40.52734375,-12.6953125,-7.32421875,0.0
1687369132.639098,-56.15234375,-146.484375,-14.6484375,-26.85546875,0.0
1687369132.642984,-51.7578125,-50.29296875,-19.04296875,-20.99609375,0.0
1687369132.6468701,17.578125,243.1640625,-20.99609375,-2.9296875,0.0
1687369132.651021,10.25390625,-43.9453125,-24.90234375,-3.90625,0.0
1687369132.654907,-60.05859375,69.3359375,-27.83203125,-29.296875,0.0
1687369132.658793,-58.10546875,324.70703125,-30.2734375,-26.85546875,0.0
1687369132.6626792,-19.04296875,222.65625,-24.4140625,-11.71875,0.0
1687369132.6665652,41.9921875,-164.0625,-23.4375,3.41796875,0.0
1687369132.6704512,-33.69140625,-255.859375,-32.2265625,-17.578125,0.0
1687369132.6743374,-46.38671875,-3.90625,-28.80859375,-30.76171875,0.0
1687369132.6782234,-21.97265625,-35.15625,-25.390625,-17.578125,0.0
1687369132.6821094,44.43359375,-538.57421875,-24.4140625,9.27734375,0.0
1687369132.6859956,-16.11328125,-594.7265625,-18.5546875,-9.27734375,0.0
1687369132.6898816,-47.36328125,180.6640625,-12.20703125,-37.109375,0.0
1687369132.6937675,-41.9921875,457.51953125,-4.8828125,-33.203125,0.0
1687369132.697902,31.25,-179.6875,-3.90625,0.0,0.0
1687369132.7017882,11.71875,-199.21875,-17.08984375,-3.90625,0.0
1687369132.7056742,-45.8984375,409.1796875,-28.3203125,-33.203125,0.0
1687369132.7095604,-61.5234375,437.98828125,-28.3203125,-31.25,0.0
1687369132.7134464,-7.8125,-60.05859375,-33.69140625,-9.765625,0.0
1687369132.7173326,19.04296875,-469.23828125,-32.2265625,-14.6484375,0.0
1687369132.7212186,-50.29296875,-31.25,-14.6484375,-41.50390625,0.0
1687369132.7251048,-59.08203125,438.4765625,-11.71875,-41.9921875,0.0
1687369132.7289908,-26.3671875,-313.4765625,-21.97265625,-8.30078125,0.0
1687369132.732877,29.296875,-666.9921875,-31.25,7.8125,0.0
1687369132.736763,-38.0859375,90.8203125,-37.59765625,-30.76171875,0.0
1687369132.740649,-45.8984375,66.40625,-23.92578125,-26.85546875,0.0
1687369132.7447722,-29.78515625,-22.4609375,-20.01953125,-5.859375,0.0
1687369132.7486584,46.875,-9.765625,-29.296875,16.6015625,0.0
1687369132.7525444,-6.34765625,172.8515625,-27.34375,-6.34765625,0.0
1687369132.7564306,-39.0625,246.09375,-23.4375,-40.52734375,0.0
1687369132.7603168,-36.1328125,128.90625,-25.390625,-33.203125,0.0
1687369132.7642028,21.97265625,-171.875,-32.2265625,-3.90625,0.0
1687369132.768089,-2.44140625,-297.36328125,-35.15625,-20.99609375,0.0
1687369132.771975,-71.2890625,-163.0859375,-33.69140625,-44.43359375,0.0
1687369132.7758613,-71.77734375,-357.91015625,-29.296875,-39.55078125,0.0
1687369132.7797475,-20.5078125,-83.984375,-29.78515625,-15.13671875,0.0
1687369132.7836335,22.4609375,123.046875,-37.109375,-4.39453125,0.0
1687369132.7875197,-46.38671875,138.671875,-33.69140625,-32.71484375,0.0
1687369132.7916317,-57.12890625,220.703125,-34.66796875,-34.66796875,0.0
1687369132.795518,-8.7890625,52.734375,-39.0625,-13.18359375,0.0
1687369132.7994041,55.6640625,-144.53125,-31.25,11.71875,0.0
1687369132.8032904,-26.3671875,46.875,-29.78515625,-8.7890625,0.0
1687369132.8071764,-47.36328125,288.0859375,-34.1796875,-29.78515625,0.0
1687369132.8110626,-39.0625,108.3984375,-29.296875,-17.08984375,0.0
1687369132.8149488,37.109375,-238.28125,-21.484375,12.20703125,0.0
1687369132.818835,0.9765625,-550.29296875,-25.87890625,-0.9765625,0.0
1687369132.822721,-38.57421875,-280.2734375,-33.203125,-14.16015625,0.0
1687369132.8266072,-38.57421875,469.7265625,-33.69140625,-19.53125,0.0
1687369132.8304935,16.6015625,86.9140625,-33.203125,-2.9296875,0.0
1687369132.8343797,8.7890625,-225.5859375,-30.76171875,4.39453125,0.0
1687369132.8384807,-51.26953125,270.01953125,-31.25,-26.85546875,0.0
1687369132.842367,-44.921875,510.25390625,-31.73828125,-28.80859375,0.0
1687369132.8462532,5.37109375,93.75,-38.0859375,6.8359375,0.0
1687369132.8501394,46.38671875,-258.7890625,-33.203125,9.765625,0.0
1687369132.8540256,-33.69140625,18.06640625,-33.203125,-15.13671875,0.0
1687369132.8579118,-42.48046875,150.87890625,-36.1328125,-18.06640625,0.0
1687369132.861798,-26.3671875,-175.29296875,-27.34375,-10.7421875,0.0
1687369132.8656843,34.1796875,-725.5859375,-24.4140625,1.953125,0.0
1687369132.8695705,-31.73828125,-148.4375,-26.85546875,-24.4140625,0.0
1687369132.8734567,-52.734375,528.80859375,-29.78515625,-46.38671875,0.0
1687369132.877343,-42.48046875,252.9296875,-33.69140625,-26.3671875,0.0
1687369132.8812292,45.8984375,-83.984375,-38.0859375,16.6015625,0.0
1687369132.8853195,16.11328125,166.9921875,-39.55078125,0.48828125,0.0
1687369132.8892057,-55.6640625,412.109375,-32.71484375,-22.4609375,0.0
1687369132.893092,-63.96484375,197.75390625,-30.76171875,-31.73828125,0.0
1687369132.8969781,-0.48828125,17.08984375,-25.87890625,-11.71875,0.0
1687369132.9008644,17.08984375,34.1796875,-23.92578125,-0.48828125,0.0
1687369132.9047506,-49.8046875,129.39453125,-27.83203125,-33.69140625,0.0
1687369132.9086368,-58.10546875,-306.640625,-25.87890625,-28.80859375,0.0
1687369132.912523,-15.13671875,-589.84375,-17.578125,2.9296875,0.0
1687369132.9164093,43.9453125,-60.546875,-8.7890625,11.23046875,0.0
1687369132.9202955,-34.1796875,242.67578125,-23.4375,-19.53125,0.0
1687369132.9241817,-41.015625,221.6796875,-47.36328125,-27.34375,0.0
1687369132.928068,-31.25,238.28125,-38.0859375,-6.34765625,0.0
1687369132.9321496,41.50390625,130.859375,-14.6484375,15.625,0.0
1687369132.936036,-10.25390625,105.95703125,-19.04296875,0.48828125,0.0
1687369132.9399223,-47.36328125,241.69921875,-31.25,-22.4609375,0.0
1687369132.9438086,-37.109375,400.87890625,-31.73828125,-23.4375,0.0
1687369132.9476948,40.52734375,133.30078125,-33.203125,5.859375,0.0
1687369132.951581,18.5546875,-212.890625,-31.73828125,0.0,0.0
1687369132.9554675,-42.96875,-421.38671875,-34.66796875,-26.3671875,0.0
1687369132.9593537,-49.31640625,-82.51953125,-38.0859375,-30.76171875,0.0
1687369132.96324,2.9296875,256.34765625,-26.3671875,-11.71875,0.0
1687369132.9671261,23.92578125,-150.390625,-19.04296875,-2.9296875,0.0
1687369132.9710124,-45.8984375,-20.99609375,-23.4375,-28.3203125,0.0
1687369132.9748986,-49.8046875,495.60546875,-24.4140625,-39.0625,0.0
1687369132.9791377,-20.01953125,382.8125,-26.3671875,-9.27734375,0.0
1687369132.983024,41.50390625,-169.921875,-25.87890625,20.01953125,0.0
1687369132.9869103,-21.97265625,-18.06640625,-35.64453125,-18.5546875,0.0
1687369132.9907966,-37.59765625,477.05078125,-42.48046875,-46.38671875,0.0
1687369132.994683,-30.76171875,367.1875,-33.69140625,-31.25,0.0
1687369132.9985693,35.15625,-291.9921875,-33.69140625,1.953125,0.0
1687369133.0024557,-13.671875,-374.51171875,-37.59765625,-13.671875,0.0
1687369133.006342,-42.96875,224.12109375,-27.83203125,-33.203125,0.0
1687369133.0102282,-45.41015625,406.25,-20.99609375,-18.5546875,0.0
1687369133.0141146,14.16015625,-366.69921875,-21.484375,19.04296875,0.0
1687369133.0180008,7.8125,-382.8125,-18.5546875,17.08984375,0.0
1687369133.0218873,-45.41015625,409.1796875,-34.66796875,-13.671875,0.0
1687369133.026033,-50.29296875,276.3671875,-45.41015625,-21.97265625,0.0
1687369133.0299191,-7.32421875,-69.82421875,-35.15625,2.9296875,0.0
1687369133.0338056,22.4609375,4.39453125,-30.2734375,4.39453125,0.0
1687369133.037692,-59.08203125,421.38671875,-30.76171875,-34.66796875,0.0
1687369133.0415783,-46.875,362.79296875,-36.1328125,-33.203125,0.0
1687369133.0454648,-19.04296875,-156.25,-39.0625,-9.27734375,0.0
1687369133.049351,29.296875,-380.37109375,-31.73828125,4.39453125,0.0
1687369133.0532374,-31.73828125,-115.234375,-35.15625,-24.90234375,0.0
1687369133.057124,-55.17578125,-17.08984375,-33.69140625,-34.66796875,0.0
1687369133.0610101,-48.828125,-67.3828125,-28.3203125,-18.5546875,0.0
1687369133.0648966,35.64453125,12.6953125,-27.83203125,5.859375,0.0
1687369133.0687828,-4.8828125,277.83203125,-28.3203125,-19.53125,0.0
1687369133.072917,-46.38671875,83.0078125,-33.69140625,-40.52734375,0.0
1687369133.0768034,-50.78125,-282.2265625,-32.2265625,-18.5546875,0.0
1687369133.0806897,5.859375,43.9453125,-34.1796875,-4.39453125,0.0
1687369133.0845761,14.6484375,-56.15234375,-43.45703125,-12.6953125,0.0
1687369133.0884626,-46.875,65.91796875,-45.41015625,-31.25,0.0
1687369133.092349,-48.33984375,171.38671875,-42.48046875,-29.296875,0.0
1687369133.0962355,-17.08984375,-31.25,-29.296875,-4.39453125,0.0
1687369133.1001217,26.3671875,20.01953125,-24.4140625,14.16015625,0.0
1687369133.1040082,-41.50390625,-231.4453125,-32.71484375,-15.13671875,0.0
1687369133.1078947,-38.0859375,-119.140625,-26.85546875,-26.3671875,0.0
1687369133.1117811,-12.20703125,469.23828125,-26.85546875,-9.765625,0.0
1687369133.1156673,49.8046875,41.9921875,-38.57421875,6.34765625,0.0
1687369133.1197898,-16.6015625,-100.09765625,-37.109375,-20.5078125,0.0
1687369133.1236763,-55.17578125,401.85546875,-35.64453125,-42.96875,0.0
1687369133.1275628,-42.96875,514.6484375,-34.66796875,-29.296875,0.0
1687369133.1314492,39.55078125,-11.23046875,-36.62109375,12.20703125,0.0
1687369133.1353357,8.7890625,-202.63671875,-41.9921875,-3.41796875,0.0
1687369133.1392221,-48.828125,37.109375,-42.96875,-23.92578125,0.0
1687369133.1431086,-62.01171875,99.609375,-40.52734375,-18.5546875,0.0
1687369133.146995,5.37109375,-259.765625,-29.296875,6.34765625,0.0
1687369133.1508815,27.83203125,-624.0234375,-18.5546875,16.11328125,0.0
1687369133.154768,-41.50390625,146.484375,-23.4375,-11.71875,0.0
1687369133.1586545,-49.31640625,604.00390625,-28.3203125,-15.625,0.0
1687369133.162541,-13.671875,143.5546875,-27.34375,2.44140625,0.0
1687369133.1666524,40.52734375,-114.2578125,-28.80859375,9.765625,0.0
1687369133.170539,-36.1328125,319.3359375,-30.2734375,-25.390625,0.0
1687369133.1744254,-50.78125,509.27734375,-31.73828125,-38.57421875,0.0
1687369133.1783118,-23.4375,166.015625,-35.15625,-6.34765625,0.0
1687369133.1821983,56.15234375,-89.84375,-31.73828125,21.484375,0.0
1687369133.1860847,0.0,-28.3203125,-18.06640625,-8.30078125,0.0
1687369133.1899712,-33.69140625,164.0625,-23.4375,-25.87890625,0.0
1687369133.1938577,-36.1328125,-152.83203125,-37.59765625,-11.23046875,0.0
1687369133.1977441,27.83203125,-634.765625,-34.1796875,23.4375,0.0
1687369133.2016308,29.78515625,-52.734375,-23.4375,17.08984375,0.0
1687369133.2055173,-18.5546875,403.80859375,-20.01953125,-5.37109375,0.0
1687369133.2094038,-41.015625,346.19140625,-21.484375,-13.18359375,0.0
1687369133.2135022,-7.32421875,158.69140625,-30.2734375,-9.765625,0.0
1687369133.2173886,33.203125,30.76171875,-20.99609375,1.46484375,0.0
1687369133.2212753,-20.99609375,220.21484375,-12.6953125,-13.671875,0.0
1687369133.2251618,-32.2265625,271.97265625,-27.83203125,-28.3203125,0.0
1687369133.2290483,-9.27734375,273.92578125,-36.62109375,-8.30078125,0.0
1687369133.2329347,53.7109375,-139.6484375,-43.9453125,19.04296875,0.0
1687369133.2368212,-22.4609375,-220.703125,-35.15625,-9.765625,0.0
1687369133.2407079,-46.875,-205.078125,-17.578125,-19.53125,0.0
1687369133.2445943,-31.73828125,141.11328125,-18.06640625,-15.13671875,0.0
1687369133.2484808,44.43359375,271.484375,-22.94921875,4.8828125,0.0
1687369133.2523673,3.41796875,67.87109375,-25.390625,1.46484375,0.0
1687369133.256254,-44.43359375,101.07421875,-30.2734375,-13.18359375,0.0
1687369133.2603452,-50.29296875,380.37109375,-33.203125,-23.4375,0.0
1687369133.264232,16.6015625,257.8125,-28.3203125,-0.48828125,0.0
1687369133.2681184,13.671875,-128.41796875,-25.87890625,9.27734375,0.0
1687369133.272005,-50.78125,187.98828125,-26.3671875,-15.13671875,0.0
1687369133.2758915,-53.7109375,441.40625,-25.87890625,-22.4609375,0.0
1687369133.279778,-8.7890625,68.84765625,-25.390625,-2.44140625,0.0
1687369133.2836647,19.04296875,-616.2109375,-22.4609375,18.5546875,0.0
1687369133.2875512,-55.6640625,-286.62109375,-21.97265625,-3.90625,0.0
1687369133.2914376,-45.41015625,506.8359375,-29.78515625,-19.04296875,0.0
1687369133.2953243,-12.20703125,316.89453125,-33.203125,-4.8828125,0.0
1687369133.2992108,41.9921875,-337.40234375,-28.3203125,11.23046875,0.0
1687369133.3030972,-20.99609375,-113.76953125,-22.94921875,-15.13671875,0.0
1687369133.3072639,-38.57421875,527.83203125,-26.85546875,-33.203125,0.0
1687369133.3111506,-31.73828125,307.6171875,-36.1328125,-22.94921875,0.0
1687369133.315037,33.203125,-266.6015625,-38.0859375,4.8828125,0.0
1687369133.3189237,-2.9296875,-11.71875,-29.78515625,-6.8359375,0.0
1687369133.3228102,-46.875,461.9140625,-24.90234375,-28.3203125,0.0
1687369133.3266969,-34.66796875,106.93359375,-25.390625,-22.4609375,0.0
1687369133.3305833,34.1796875,-755.859375,-23.92578125,15.625,0.0
1687369133.33447,22.4609375,-550.29296875,-20.5078125,12.6953125,0.0
1687369133.3383567,-54.19921875,354.4921875,-23.92578125,-33.69140625,0.0
1687369133.3422432,-59.5703125,339.84375,-33.203125,-40.52734375,0.0
1687369133.34613,-18.06640625,32.2265625,-32.2265625,-15.13671875,0.0
1687369133.3500164,27.83203125,13.671875,-25.87890625,1.953125,0.0
1687369133.354085,-41.9921875,313.4765625,-28.80859375,-21.484375,0.0
1687369133.3579717,-48.33984375,301.7578125,-36.1328125,-31.73828125,0.0
1687369133.3618581,-33.69140625,150.87890625,-47.8515625,-21.97265625,0.0
1687369133.3657448,23.4375,97.65625,-54.6875,-4.8828125,0.0
1687369133.3696315,-34.1796875,112.79296875,-52.24609375,-20.5078125,0.0
1687369133.373518,-41.50390625,110.3515625,-44.921875,-37.109375,0.0
1687369133.3774047,-28.3203125,-24.4140625,-37.109375,-35.64453125,0.0
1687369133.3812914,27.83203125,-61.5234375,-35.15625,0.0,0.0
1687369133.3851779,-9.27734375,165.52734375,-33.69140625,-9.765625,0.0
1687369133.3890646,-55.6640625,-186.03515625,-45.8984375,-29.78515625,0.0
1687369133.3929513,-40.52734375,-201.171875,-42.48046875,-24.4140625,0.0
1687369133.3968377,11.23046875,279.78515625,-25.87890625,-1.46484375,0.0
1687369133.40098,24.90234375,47.36328125,-29.78515625,9.765625,0.0
1687369133.4048667,-34.66796875,104.4921875,-27.83203125,-22.4609375,0.0
1687369133.4087534,-35.64453125,384.27734375,-27.34375,-31.25,0.0
1687369133.4126399,-6.34765625,363.28125,-27.34375,-11.71875,0.0
1687369133.4165266,43.9453125,-101.07421875,-25.87890625,3.41796875,0.0
1687369133.4204133,-30.2734375,-238.76953125,-25.87890625,-16.11328125,0.0
1687369133.4243,-36.62109375,17.08984375,-18.5546875,-18.5546875,0.0
1687369133.4281867,-16.6015625,52.24609375,-23.4375,-13.18359375,0.0
1687369133.4320734,50.29296875,-434.08203125,-31.25,4.8828125,0.0
1687369133.43596,0.0,-336.9140625,-28.80859375,-9.27734375,0.0
1687369133.4398465,-38.57421875,429.19921875,-31.25,-26.85546875,0.0
1687369133.4437332,-41.50390625,587.890625,-39.0625,-24.4140625,0.0
1687369133.447864,22.94921875,-226.5625,-41.9921875,6.8359375,0.0
1687369133.4517508,1.953125,-562.01171875,-32.2265625,2.9296875,0.0
1687369133.4556375,-47.36328125,294.921875,-22.4609375,-32.2265625,0.0
1687369133.4595242,-40.0390625,489.2578125,-19.53125,-26.85546875,0.0
1687369133.4634109,-20.99609375,-13.18359375,-20.99609375,-15.13671875,0.0
1687369133.4672976,10.7421875,-411.62109375,-19.04296875,-19.53125,0.0
1687369133.4711843,-36.1328125,-17.08984375,-23.4375,-42.96875,0.0
1687369133.475071,-42.96875,469.23828125,-38.57421875,-47.36328125,0.0
1687369133.4789577,-13.18359375,-180.17578125,-45.41015625,-4.39453125,0.0
1687369133.4828444,37.59765625,-615.234375,-40.0390625,21.97265625,0.0
1687369133.486731,-33.203125,42.96875,-31.73828125,-24.4140625,0.0
1687369133.4906178,-37.59765625,283.69140625,-32.2265625,-41.015625,0.0
1687369133.4947376,-21.484375,205.56640625,-24.90234375,-24.4140625,0.0
1687369133.4986243,41.015625,70.80078125,-18.5546875,4.39453125,0.0
1687369133.502511,1.46484375,243.1640625,-19.53125,-2.9296875,0.0
1687369133.5063977,-41.015625,357.421875,-37.59765625,-28.3203125,0.0
1687369133.5102847,-37.109375,263.671875,-46.875,-23.4375,0.0
1687369133.5141714,21.97265625,9.765625,-29.78515625,0.9765625,0.0
1687369133.518058,6.34765625,-168.45703125,-20.5078125,-10.7421875,0.0
1687369133.5219448,-61.03515625,-73.73046875,-26.85546875,-41.50390625,0.0
1687369133.5258315,-42.96875,-197.75390625,-24.90234375,-32.71484375,0.0
1687369133.5297182,9.27734375,47.36328125,-18.06640625,-6.8359375,0.0
1687369133.533605,21.484375,152.34375,-25.390625,2.9296875,0.0
1687369133.5374918,-44.921875,112.79296875,-36.1328125,-21.484375,0.0
1687369133.541601,-39.55078125,230.46875,-34.66796875,-26.3671875,0.0
1687369133.5454876,-23.4375,177.734375,-26.3671875,2.44140625,0.0
1687369133.5493743,42.96875,-52.734375,-19.04296875,25.390625,0.0
1687369133.553261,-16.6015625,22.4609375,-17.578125,-4.39453125,0.0
1687369133.557148,-30.76171875,239.74609375,-25.390625,-27.83203125,0.0
1687369133.5610347,-11.71875,103.02734375,-29.296875,-20.01953125,0.0
1687369133.5649214,48.828125,-160.64453125,-32.71484375,5.37109375,0.0
1687369133.5688083,26.85546875,-469.7265625,-40.52734375,16.6015625,0.0
1687369133.572695,-10.7421875,-205.56640625,-24.4140625,5.37109375,0.0
1687369133.5765817,-48.828125,518.06640625,-10.25390625,-32.2265625,0.0
1687369133.5804687,-9.27734375,139.6484375,-15.13671875,-13.671875,0.0
1687369133.5843554,20.99609375,-211.42578125,-14.16015625,9.765625,0.0
1687369133.5884504,-48.33984375,279.78515625,-16.6015625,-31.25,0.0
1687369133.5923374,-47.36328125,604.98046875,-16.6015625,-36.1328125,0.0
1687369133.596224,-9.765625,245.60546875,-19.04296875,-4.8828125,0.0
1687369133.600111,28.3203125,-335.44921875,-20.01953125,5.859375,0.0
1687369133.6039977,-34.1796875,-58.59375,-21.97265625,-15.625,0.0
1687369133.6078846,-38.0859375,240.234375,-29.296875,-28.3203125,0.0
1687369133.6117713,-21.97265625,-96.6796875,-34.66796875,-26.3671875,0.0
1687369133.615658,41.50390625,-697.75390625,-31.73828125,15.625,0.0
1687369133.619545,-11.23046875,-180.6640625,-21.97265625,-0.48828125,0.0
1687369133.6234317,-40.0390625,569.3359375,-20.99609375,-35.64453125,0.0
1687369133.6273186,-36.62109375,265.13671875,-30.2734375,-27.34375,0.0
1687369133.6312053,27.34375,-61.03515625,-31.25,-1.46484375,0.0
1687369133.6352935,10.25390625,74.21875,-26.3671875,-7.32421875,0.0
1687369133.6391802,-33.203125,306.640625,-36.1328125,-25.390625,0.0
1687369133.6430671,-38.57421875,128.90625,-42.96875,-26.3671875,0.0
1687369133.6469538,1.953125,-36.1328125,-38.0859375,0.9765625,0.0
1687369133.6508408,14.6484375,128.90625,-31.73828125,4.8828125,0.0
1687369133.6547275,-45.8984375,96.6796875,-18.06640625,-27.83203125,0.0
1687369133.6586144,-46.875,-52.734375,-16.6015625,-29.78515625,0.0
1687369133.6625013,-21.97265625,-30.76171875,-27.83203125,-5.37109375,0.0
1687369133.666388,45.41015625,100.09765625,-27.83203125,18.5546875,0.0
1687369133.670275,-15.625,306.15234375,-20.5078125,-17.08984375,0.0
1687369133.6741617,-32.2265625,-12.6953125,-23.92578125,-37.109375,0.0
1687369133.6780486,-18.5546875,-74.21875,-25.390625,-23.4375,0.0
1687369133.6821256,52.734375,167.96875,-28.3203125,4.8828125,0.0
1687369133.6860125,-3.90625,72.265625,-31.73828125,-9.27734375,0.0
1687369133.6898994,-41.50390625,190.4296875,-28.3203125,-26.85546875,0.0
1687369133.6937861,-29.78515625,372.0703125,-27.83203125,-13.671875,0.0
1687369133.697673,33.69140625,141.11328125,-35.15625,9.765625,0.0
1687369133.70156,12.20703125,-260.25390625,-41.50390625,14.16015625,0.0
1687369133.7054467,-49.31640625,-456.0546875,-36.1328125,-3.41796875,0.0
1687369133.7093337,-47.8515625,-67.87109375,-33.69140625,-29.78515625,0.0
1687369133.7132206,-5.859375,166.015625,-44.921875,-12.20703125,0.0
1687369133.7171075,28.3203125,-274.90234375,-43.45703125,15.625,0.0
1687369133.7209942,-44.43359375,6.8359375,-32.2265625,-9.765625,0.0
1687369133.7248812,-52.734375,497.0703125,-29.296875,-24.90234375,0.0
1687369133.7290316,-24.4140625,369.62890625,-29.296875,-19.04296875,0.0
1687369133.7329185,42.96875,-200.1953125,-37.59765625,-3.90625,0.0
1687369133.7368054,-17.578125,-70.3125,-39.55078125,-25.390625,0.0
1687369133.7406924,-42.96875,443.359375,-39.0625,-31.25,0.0
1687369133.744579,-45.8984375,369.140625,-40.0390625,-22.4609375,0.0
1687369133.748466,29.296875,-332.03125,-36.1328125,4.39453125,0.0
1687369133.752353,-5.37109375,-371.58203125,-36.62109375,-8.30078125,0.0
1687369133.75624,-44.921875,336.9140625,-26.3671875,-42.96875,0.0
1687369133.7601268,-43.9453125,439.453125,-22.4609375,-35.15625,0.0
1687369133.7640138,1.953125,-326.171875,-30.2734375,2.9296875,0.0
1687369133.7679007,14.6484375,-386.23046875,-35.15625,-3.41796875,0.0
1687369133.7717874,-39.55078125,298.828125,-38.57421875,-35.64453125,0.0
1687369133.7759264,-54.19921875,123.53515625,-35.64453125,-30.2734375,0.0
1687369133.7798133,-18.06640625,-106.93359375,-35.15625,-9.765625,0.0
1687369133.7837002,28.3203125,-60.05859375,-30.2734375,0.0,0.0
1687369133.7875872,-41.015625,284.66796875,-33.203125,-27.83203125,0.0
1687369133.791474,-49.8046875,303.7109375,-34.66796875,-36.1328125,0.0
1687369133.795361,-30.2734375,-104.98046875,-27.83203125,-13.18359375,0.0
1687369133.7992482,44.43359375,-376.46484375,-29.296875,12.6953125,0.0
1687369133.8031352,-10.7421875,-146.97265625,-31.73828125,-5.37109375,0.0
1687369133.807022,-41.9921875,-26.3671875,-41.50390625,-21.484375,0.0
1687369133.810909,-31.73828125,-332.03125,-40.52734375,-5.37109375,0.0
1687369133.814796,38.57421875,-118.65234375,-38.0859375,21.97265625,0.0
1687369133.818683,6.34765625,247.55859375,-36.1328125,-3.90625,0.0
1687369133.8228903,-41.9921875,221.6796875,-29.78515625,-30.2734375,0.0
1687369133.8267772,-55.17578125,249.0234375,-36.62109375,-26.3671875,0.0
1687369133.8306644,-0.9765625,36.62109375,-38.57421875,3.90625,0.0
1687369133.8345513,26.85546875,-179.6875,-34.66796875,7.8125,0.0
1687369133.8384383,-39.0625,86.9140625,-37.109375,-31.25,0.0
1687369133.8423252,-55.17578125,31.73828125,-44.43359375,-39.0625,0.0
1687369133.8462124,-32.2265625,-104.00390625,-53.22265625,-20.01953125,0.0
1687369133.8500993,30.2734375,-216.796875,-51.7578125,4.8828125,0.0
1687369133.8539863,-34.1796875,-404.296875,-36.1328125,-13.18359375,0.0
1687369133.8578732,-43.45703125,-144.53125,-30.76171875,-32.71484375,0.0
1687369133.8617604,-20.01953125,454.58984375,-45.41015625,-16.11328125,0.0
1687369133.8656473,46.38671875,53.22265625,-53.22265625,10.25390625,0.0
1687369133.8697667,-1.46484375,-67.87109375,-41.50390625,-20.01953125,0.0
1687369133.873654,-34.66796875,424.31640625,-39.55078125,-36.1328125,0.0
1687369133.8775408,-44.921875,572.75390625,-38.57421875,-27.34375,0.0
1687369133.881428,21.97265625,67.87109375,-29.296875,9.27734375,0.0
1687369133.885315,11.71875,-260.25390625,-23.92578125,26.3671875,0.0
1687369133.8892019,-43.45703125,37.109375,-30.2734375,-11.71875,0.0
1687369133.893089,-45.8984375,83.49609375,-36.62109375,-21.97265625,0.0
1687369133.896976,4.8828125,-361.81640625,-25.87890625,8.30078125,0.0
1687369133.9008632,35.15625,-495.60546875,-19.53125,18.5546875,0.0
1687369133.90475,-29.78515625,170.8984375,-33.69140625,-21.97265625,0.0
1687369133.908637,-44.921875,558.10546875,-46.875,-32.2265625,0.0
1687369133.9125242,-25.390625,27.34375,-47.8515625,-4.8828125,0.0
1687369133.9166274,46.38671875,-671.38671875,-42.48046875,9.765625,0.0
1687369133.9205143,-11.71875,56.640625,-38.0859375,-20.5078125,0.0
1687369133.9244015,-35.15625,463.8671875,-34.66796875,-29.78515625,0.0
1687369133.9282885,-35.64453125,115.72265625,-20.01953125,-7.32421875,0.0
1687369133.9321756,43.45703125,-109.86328125,-24.4140625,16.6015625,0.0
1687369133.9360626,3.90625,-137.20703125,-40.0390625,-5.859375,0.0
1687369133.9399498,-40.0390625,100.5859375,-44.43359375,-34.1796875,0.0
1687369133.9438367,-39.0625,-249.0234375,-43.45703125,-16.6015625,0.0
1687369133.9477239,21.484375,-662.59765625,-38.0859375,21.484375,0.0
1687369133.951611,26.85546875,15.13671875,-32.71484375,5.37109375,0.0
1687369133.955498,-33.203125,394.53125,-25.390625,-20.99609375,0.0
1687369133.9593852,-41.015625,290.52734375,-21.484375,-16.11328125,0.0
1687369133.9634778,-3.90625,170.8984375,-27.34375,7.8125,0.0
1687369133.967365,44.43359375,113.28125,-36.1328125,14.16015625,0.0
1687369133.971252,-13.671875,231.4453125,-32.71484375,-8.7890625,0.0
1687369133.9751391,-32.71484375,281.25,-28.80859375,-14.6484375,0.0
1687369133.9790263,-18.06640625,218.75,-33.69140625,-0.48828125,0.0
1687369133.9829133,58.59375,-216.30859375,-40.0390625,22.4609375,0.0
1687369133.9868004,-4.8828125,-278.80859375,-46.38671875,-5.37109375,0.0
1687369133.9906876,-34.66796875,-294.43359375,-51.7578125,-22.94921875,0.0
1687369133.9945745,-27.83203125,80.56640625,-44.43359375,-20.5078125,0.0
1687369133.9984617,45.41015625,208.984375,-33.203125,0.48828125,0.0
1687369134.002349,10.7421875,-135.7421875,-25.87890625,-14.16015625,0.0
1687369134.006236,-49.31640625,44.43359375,-20.5078125,-40.52734375,0.0
1687369134.010318,-54.6875,457.51953125,-24.4140625,-34.66796875,0.0
1687369134.014205,0.0,265.625,-33.203125,-4.8828125,0.0
1687369134.0180922,9.765625,-178.22265625,-31.73828125,4.8828125,0.0
1687369134.0219793,-45.8984375,87.40234375,-27.34375,-33.69140625,0.0
1687369134.0258665,-42.96875,443.359375,-30.2734375,-39.55078125,0.0
1687369134.0297537,-4.8828125,70.80078125,-27.83203125,-13.671875,0.0
1687369134.0336406,35.15625,-731.93359375,-30.2734375,-3.90625,0.0
1687369134.0375278,-39.0625,-547.8515625,-41.9921875,-21.97265625,0.0
1687369134.041415,-46.38671875,386.23046875,-42.48046875,-36.62109375,0.0
1687369134.0453022,-33.203125,344.23828125,-34.1796875,-24.90234375,0.0
1687369134.0491893,41.015625,-183.59375,-29.296875,12.6953125,0.0
1687369134.0530763,-18.06640625,99.609375,-22.94921875,-10.25390625,0.0
1687369134.057148,-42.96875,464.84375,-13.18359375,-29.78515625,0.0
1687369134.0610352,-39.0625,99.12109375,-16.6015625,-15.625,0.0
1687369134.064922,21.484375,-224.609375,-29.296875,18.5546875,0.0
1687369134.0688093,11.23046875,50.78125,-34.66796875,11.71875,0.0
1687369134.0726964,-41.50390625,395.01953125,-36.62109375,-12.6953125,0.0
1687369134.0765836,-49.8046875,130.859375,-40.52734375,-14.6484375,0.0
1687369134.0804708,-8.7890625,-616.69921875,-37.109375,6.8359375,0.0
1687369134.084358,17.578125,-558.10546875,-24.90234375,3.90625,0.0
1687369134.0882452,-37.59765625,314.453125,-17.08984375,-27.34375,0.0
1687369134.0921323,-37.59765625,336.42578125,-20.5078125,-20.99609375,0.0
1687369134.0960195,-18.5546875,-4.8828125,-32.2265625,-4.8828125,0.0
1687369134.0999067,31.25,0.48828125,-38.57421875,8.30078125,0.0
1687369134.1039708,-26.3671875,296.38671875,-30.2734375,-14.16015625,0.0
1687369134.107858,-36.62109375,126.46484375,-25.87890625,-30.76171875,0.0
1687369134.111745,-28.80859375,-49.8046875,-29.78515625,-17.08984375,0.0
1687369134.1156323,39.0625,4.39453125,-35.15625,7.32421875,0.0
1687369134.1195195,-14.16015625,-37.109375,-27.83203125,-14.16015625,0.0
1687369134.1234066,-53.22265625,-156.25,-29.296875,-28.3203125,0.0
1687369134.1272938,-51.7578125,-76.171875,-44.921875,-24.4140625,0.0
1687369134.131181,16.6015625,152.34375,-31.25,10.25390625,0.0
1687369134.1350682,4.8828125,-3.90625,-19.53125,7.32421875,0.0
1687369134.1389554,-54.19921875,-63.96484375,-28.3203125,-32.2265625,0.0
1687369134.1428425,-53.7109375,180.17578125,-39.55078125,-32.71484375,0.0
1687369134.1467297,-9.765625,241.69921875,-41.9921875,-15.625,0.0
1687369134.1508622,28.80859375,-100.09765625,-41.50390625,0.0,0.0
1687369134.1547494,-40.52734375,-164.0625,-41.9921875,-25.87890625,0.0
1687369134.1586366,-49.8046875,185.05859375,-41.9921875,-35.15625,0.0
1687369134.162524,-20.01953125,307.6171875,-48.828125,-11.71875,0.0
1687369134.1664112,41.9921875,-200.1953125,-51.7578125,2.44140625,0.0
1687369134.1702983,-20.01953125,-375.9765625,-42.48046875,-13.18359375,0.0
1687369134.1741855,-41.015625,-64.94140625,-43.45703125,-29.296875,0.0
1687369134.1780727,-42.48046875,-13.18359375,-32.2265625,-34.1796875,0.0
1687369134.18196,17.08984375,-536.1328125,-17.08984375,-9.765625,0.0
1687369134.1858473,-11.71875,-575.1953125,-17.08984375,-15.13671875,0.0
1687369134.1897345,-45.8984375,226.5625,-23.4375,-27.34375,0.0
1687369134.1936216,-54.19921875,433.10546875,-23.4375,-25.390625,0.0
1687369134.197745,17.08984375,-110.3515625,-23.92578125,9.27734375,0.0
1687369134.2016325,36.62109375,-224.609375,-31.73828125,27.34375,0.0
1687369134.2055197,-48.33984375,303.22265625,-26.3671875,-17.578125,0.0
1687369134.2094069,-64.94140625,402.34375,-23.92578125,-47.8515625,0.0
1687369134.2132943,-20.01953125,-96.6796875,-26.3671875,-19.53125,0.0
1687369134.2171814,26.85546875,-551.7578125,-21.97265625,9.27734375,0.0
1687369134.2210686,-37.59765625,-128.41796875,-22.94921875,-17.578125,0.0
1687369134.224956,-43.45703125,361.328125,-30.76171875,-30.76171875,0.0
1687369134.2288432,-22.4609375,-300.78125,-41.015625,-1.953125,0.0
1687369134.2327304,39.0625,-848.6328125,-30.76171875,22.94921875,0.0
1687369134.2366178,-13.671875,-63.96484375,-13.18359375,-3.90625,0.0
1687369134.240505,-41.015625,350.5859375,-25.87890625,-14.16015625,0.0
1687369134.2446196,-48.33984375,187.01171875,-35.15625,-13.18359375,0.0
1687369134.2485068,24.90234375,-30.2734375,-23.4375,7.32421875,0.0
1687369134.2523942,-0.48828125,46.38671875,-24.4140625,-5.859375,0.0
1687369134.2562814,-56.15234375,248.046875,-33.203125,-31.25,0.0
1687369134.2601688,-58.10546875,132.8125,-31.73828125,-23.4375,0.0
1687369134.264056,2.9296875,-187.5,-27.83203125,3.41796875,0.0
1687369134.2679434,27.34375,-422.36328125,-28.80859375,0.0,0.0
1687369134.2718306,-39.0625,-253.90625,-35.15625,-31.25,0.0
1687369134.2757177,-38.57421875,-300.29296875,-41.015625,-28.3203125,0.0
1687369134.2796052,-7.32421875,-105.46875,-36.62109375,-10.25390625,0.0
1687369134.2834923,36.62109375,14.16015625,-27.34375,7.8125,0.0
1687369134.2873797,-31.73828125,-133.30078125,-24.90234375,-8.30078125,0.0
1687369134.291481,-42.48046875,-232.91015625,-35.64453125,-20.5078125,0.0
1687369134.2953682,-31.25,75.68359375,-33.69140625,-14.16015625,0.0
1687369134.2992556,38.0859375,-0.48828125,-26.3671875,2.44140625,0.0
1687369134.303143,3.41796875,-132.8125,-30.76171875,-14.6484375,0.0
1687369134.3070302,-21.484375,136.23046875,-28.80859375,-27.83203125,0.0
1687369134.3109176,-25.87890625,103.02734375,-36.62109375,-23.92578125,0.0
1687369134.314805,30.76171875,-251.46484375,-41.015625,-4.8828125,0.0
1687369134.3186922,7.8125,-694.82421875,-25.87890625,-3.90625,0.0
1687369134.3225796,-52.24609375,-407.71484375,-16.6015625,-22.4609375,0.0
1687369134.3264668,-51.26953125,333.984375,-24.90234375,-22.4609375,0.0
1687369134.3303542,-6.8359375,29.78515625,-27.83203125,-0.9765625,0.0
1687369134.3342416,17.08984375,-358.3984375,-30.2734375,6.34765625,0.0
1687369134.3383322,-39.55078125,62.01171875,-33.69140625,-20.99609375,0.0
1687369134.3422196,-41.015625,399.90234375,-32.2265625,-35.15625,0.0
1687369134.346107,-15.13671875,-64.453125,-34.66796875,-12.6953125,0.0
1687369134.3499942,42.48046875,-578.61328125,-40.52734375,11.71875,0.0
1687369134.3538816,-18.5546875,-27.34375,-39.0625,-11.71875,0.0
1687369134.357769,-41.9921875,203.125,-33.203125,-30.2734375,0.0
1687369134.3616564,-42.96875,-207.51953125,-42.48046875,-10.25390625,0.0
1687369134.3655436,33.69140625,-751.953125,-49.31640625,15.625,0.0
1687369134.369431,-12.20703125,-276.3671875,-44.921875,-20.01953125,0.0
1687369134.3733184,-56.640625,455.56640625,-38.0859375,-44.921875,0.0
1687369134.3772058,-40.0390625,190.4296875,-33.69140625,-38.0859375,0.0
1687369134.381093,32.2265625,-201.66015625,-40.52734375,-11.71875,0.0
1687369134.3851733,17.08984375,-58.10546875,-42.48046875,-9.27734375,0.0
1687369134.3890607,-45.8984375,300.29296875,-45.8984375,-32.2265625,0.0
1687369134.3929482,-39.0625,177.734375,-49.31640625,-29.78515625,0.0
1687369134.3968356,1.46484375,-58.59375,-35.64453125,-7.8125,0.0
1687369134.400723,34.66796875,-144.53125,-23.4375,-0.48828125,0.0
1687369134.4046104,-33.69140625,-84.47265625,-26.3671875,-31.73828125,0.0
1687369134.4084976,-32.2265625,-426.7578125,-32.71484375,-24.4140625,0.0
1687369134.412385,-23.4375,-584.47265625,-39.55078125,1.953125,0.0
1687369134.4162724,30.2734375,-191.89453125,-34.66796875,6.8359375,0.0
1687369134.4201598,-27.83203125,-43.9453125,-32.2265625,-19.53125,0.0
1687369134.4240472,-41.50390625,41.50390625,-30.76171875,-32.2265625,0.0
1687369134.4279346,-29.296875,128.90625,-26.3671875,-26.3671875,0.0
1687369134.4320052,36.1328125,-19.53125,-28.80859375,0.48828125,0.0
1687369134.4358926,4.8828125,-135.25390625,-31.73828125,-5.37109375,0.0
1687369134.43978,-31.73828125,-19.53125,-36.1328125,-22.94921875,0.0
1687369134.4436674,-24.4140625,195.80078125,-38.57421875,-15.13671875,0.0
1687369134.4475548,18.5546875,28.3203125,-36.62109375,1.46484375,0.0
1687369134.4514422,14.16015625,-424.8046875,-35.15625,2.9296875,0.0
1687369134.4553297,-40.52734375,-642.08984375,-34.66796875,-18.06640625,0.0
1687369134.459217,-41.015625,-272.4609375,-23.92578125,-30.76171875,0.0
1687369134.4631045,-15.625,-111.328125,-28.3203125,-5.859375,0.0
1687369134.466992,28.80859375,-604.00390625,-40.52734375,18.5546875,0.0
1687369134.4708793,-37.109375,-204.58984375,-34.66796875,-19.04296875,0.0
1687369134.4747667,-43.45703125,421.875,-23.92578125,-32.71484375,0.0
1687369134.4789076,-16.6015625,200.68359375,-28.3203125,-20.01953125,0.0
1687369134.482795,44.921875,-469.23828125,-38.57421875,10.25390625,0.0
1687369134.4866827,-16.6015625,-237.3046875,-29.78515625,-5.859375,0.0
1687369134.49057,-34.1796875,322.265625,-22.94921875,-27.34375,0.0
1687369134.4944575,-37.59765625,276.85546875,-31.73828125,-20.5078125,0.0
1687369134.498345,19.53125,-508.7890625,-43.9453125,4.8828125,0.0
1687369134.5022323,6.34765625,-601.5625,-34.1796875,1.46484375,0.0
1687369134.5061197,-32.71484375,247.55859375,-29.78515625,-23.92578125,0.0
1687369134.5100074,-36.1328125,355.46875,-48.828125,-30.2734375,0.0
1687369134.5138948,0.48828125,-333.0078125,-40.0390625,-8.7890625,0.0
1687369134.5177822,18.5546875,-450.1953125,-26.85546875,-2.44140625,0.0
1687369134.5216696,-47.36328125,-6.8359375,-34.1796875,-23.92578125,0.0
1687369134.5258005,-62.5,69.82421875,-33.203125,-26.85546875,0.0
1687369134.529688,-34.1796875,-55.17578125,-29.296875,-12.6953125,0.0
1687369134.5335753,32.71484375,-177.734375,-30.76171875,2.44140625,0.0
1687369134.537463,-25.87890625,147.4609375,-34.66796875,-23.92578125,0.0
1687369134.5413504,-40.52734375,193.84765625,-37.109375,-32.2265625,0.0
1687369134.5452378,-32.71484375,-204.58984375,-43.9453125,-19.04296875,0.0
1687369134.5491252,28.80859375,-540.0390625,-42.48046875,6.8359375,0.0
1687369134.5530128,-17.08984375,-362.79296875,-33.203125,-16.6015625,0.0
1687369134.5569003,-47.8515625,-167.48046875,-39.0625,-38.0859375,0.0
1687369134.5607877,-46.875,-422.36328125,-49.8046875,-29.78515625,0.0
1687369134.5646753,24.4140625,-284.66796875,-40.0390625,-7.32421875,0.0
1687369134.5685627,16.6015625,-11.23046875,-31.73828125,-9.765625,0.0
1687369134.5726821,-42.96875,81.0546875,-30.2734375,-32.2265625,0.0
1687369134.5765698,-53.7109375,112.79296875,-32.2265625,-29.78515625,0.0
1687369134.5804572,-13.18359375,-57.12890625,-39.0625,-11.71875,0.0
1687369134.5843446,16.11328125,-170.8984375,-39.0625,-8.30078125,0.0
1687369134.5882323,-50.29296875,12.6953125,-33.203125,-29.78515625,0.0
1687369134.5921197,-38.0859375,-76.66015625,-30.2734375,-31.25,0.0
1687369134.5960073,-17.578125,-129.39453125,-34.1796875,-14.16015625,0.0
1687369134.5998948,33.69140625,-85.9375,-38.0859375,2.44140625,0.0
1687369134.6037824,-28.3203125,-492.1875,-40.0390625,-16.11328125,0.0
1687369134.6076698,-51.26953125,-369.62890625,-40.52734375,-31.25,0.0
1687369134.6115575,-38.0859375,299.8046875,-41.9921875,-26.3671875,0.0
1687369134.615445,43.45703125,-146.484375,-46.38671875,7.32421875,0.0
1687369134.6196332,-7.32421875,-310.546875,-41.015625,-2.44140625,0.0
1687369134.6235209,-59.08203125,225.5859375,-36.62109375,-32.2265625,0.0
1687369134.6274085,-45.41015625,479.4921875,-44.43359375,-29.78515625,0.0
1687369134.631296,10.7421875,4.8828125,-46.875,-1.46484375,0.0
1687369134.6351836,2.44140625,-460.44921875,-40.52734375,0.48828125,0.0
1687369134.6390712,-43.45703125,-143.06640625,-40.52734375,-33.69140625,0.0
1687369134.6429586,-34.66796875,22.4609375,-42.48046875,-38.0859375,0.0
1687369134.6468463,-3.90625,-360.3515625,-32.71484375,-4.8828125,0.0
1687369134.650734,28.80859375,-804.6875,-30.2734375,-0.48828125,0.0
1687369134.6546214,-38.57421875,-125.0,-45.41015625,-25.390625,0.0
1687369134.658509,-42.48046875,539.0625,-49.31640625,-31.73828125,0.0
1687369134.6623964,-26.85546875,-6.34765625,-41.015625,-25.390625,0.0
1687369134.666495,38.0859375,-486.328125,-41.50390625,0.9765625,0.0
1687369134.6703827,-17.578125,56.640625,-45.41015625,-20.01953125,0.0
1687369134.6742704,-35.15625,359.375,-34.66796875,-40.0390625,0.0
1687369134.678158,-34.1796875,118.65234375,-24.90234375,-19.04296875,0.0
1687369134.6820457,15.625,-189.94140625,-28.80859375,1.46484375,0.0
1687369134.685933,-11.23046875,-215.8203125,-28.80859375,-13.671875,0.0
1687369134.6898208,-46.875,-94.7265625,-39.55078125,-33.69140625,0.0
1687369134.6937084,-46.38671875,-176.7578125,-43.45703125,-35.15625,0.0
1687369134.697596,-1.46484375,-250.48828125,-39.55078125,-13.671875,0.0
1687369134.7014835,10.7421875,-65.4296875,-41.9921875,-11.23046875,0.0
1687369134.7053711,-34.66796875,274.4140625,-34.66796875,-36.62109375,0.0
1687369134.7092588,-38.57421875,-219.7265625,-38.0859375,-41.50390625,0.0
1687369134.713506,-20.01953125,-477.5390625,-37.109375,-10.7421875,0.0
1687369134.7173936,29.78515625,-50.29296875,-38.57421875,0.0,0.0
1687369134.7212813,-17.578125,45.41015625,-47.8515625,-18.06640625,0.0
1687369134.725169,-28.3203125,99.12109375,-38.0859375,-23.92578125,0.0
1687369134.7290566,-33.203125,89.35546875,-41.015625,-13.18359375,0.0
1687369134.7329443,31.73828125,-339.84375,-41.50390625,12.20703125,0.0
1687369134.736832,-10.7421875,-442.87109375,-29.296875,-9.765625,0.0
1687369134.7407196,-34.1796875,-394.53125,-40.0390625,-29.78515625,0.0
1687369134.7446072,-33.203125,9.765625,-42.96875,-24.4140625,0.0
1687369134.7484949,25.87890625,40.52734375,-39.55078125,1.46484375,0.0
1687369134.7523825,5.37109375,-377.44140625,-38.0859375,9.27734375,0.0
1687369134.7562702,-46.875,-10.25390625,-35.15625,-12.20703125,0.0
1687369134.7603474,-62.5,403.3203125,-30.76171875,-33.69140625,0.0
1687369134.764235,-20.01953125,175.78125,-23.4375,-13.18359375,0.0
1687369134.7681227,18.06640625,-294.43359375,-17.578125,11.71875,0.0
1687369134.7720103,-45.8984375,-8.30078125,-20.99609375,-23.4375,0.0
1687369134.7758982,-48.828125,420.41015625,-25.390625,-30.2734375,0.0
1687369134.7797859,-19.53125,-29.78515625,-20.01953125,-5.37109375,0.0
1687369134.7836735,36.62109375,-637.6953125,-25.390625,12.20703125,0.0
1687369134.7875612,-22.94921875,-228.02734375,-27.83203125,-5.859375,0.0
1687369134.7914488,-39.55078125,386.23046875,-21.484375,-7.8125,0.0
1687369134.7953365,-33.203125,261.23046875,-28.80859375,2.44140625,0.0
1687369134.7992241,39.0625,-395.99609375,-31.73828125,18.5546875,0.0
1687369134.8031118,0.48828125,-231.4453125,-25.390625,-3.90625,0.0
1687369134.807182,-28.80859375,220.21484375,-17.578125,-20.01953125,0.0
1687369134.8110697,-30.2734375,22.4609375,-23.4375,-6.8359375,0.0
1687369134.8149576,31.73828125,-608.3984375,-33.69140625,25.87890625,0.0
1687369134.8188453,29.78515625,-495.60546875,-42.96875,6.34765625,0.0
1687369134.822733,-31.25,243.65234375,-39.55078125,-29.78515625,0.0
1687369134.8266206,-40.0390625,48.33984375,-32.71484375,-22.4609375,0.0
1687369134.8305085,-5.37109375,-689.453125,-29.78515625,1.953125,0.0
1687369134.8343961,20.5078125,-683.59375,-24.4140625,12.6953125,0.0
1687369134.8382838,-39.55078125,194.82421875,-25.87890625,-17.578125,0.0
1687369134.8421714,-41.015625,254.39453125,-23.4375,-26.3671875,0.0
1687369134.8460593,-14.16015625,-12.6953125,-22.4609375,-5.859375,0.0
1687369134.849947,48.33984375,6.8359375,-30.2734375,5.859375,0.0
1687369134.8540058,-21.97265625,207.51953125,-34.66796875,-21.484375,0.0
1687369134.8578935,-31.73828125,213.37890625,-30.76171875,-27.83203125,0.0
1687369134.8617811,-26.85546875,153.80859375,-25.87890625,-10.25390625,0.0
1687369134.865669,35.64453125,-123.53515625,-17.08984375,28.80859375,0.0
1687369134.8695567,23.92578125,-197.75390625,-4.8828125,23.4375,0.0
1687369134.8734443,-20.99609375,-65.91796875,-9.765625,-15.13671875,0.0
1687369134.8773322,-48.33984375,-37.59765625,-34.1796875,-43.45703125,0.0
1687369134.8812199,-0.48828125,12.20703125,-31.73828125,-19.04296875,0.0
1687369134.8851075,9.765625,-86.42578125,-15.625,-7.8125,0.0
1687369134.8889954,-67.3828125,-277.34375,-31.73828125,-49.8046875,0.0
1687369134.892883,-80.078125,-165.0390625,-33.203125,-56.640625,0.0
1687369134.8967707,-42.48046875,170.8984375,-7.8125,-51.26953125,0.0
1687369134.900897,-20.99609375,-231.93359375,-3.90625,-67.3828125,0.0
1687369134.904785,-102.5390625,-162.59765625,4.39453125,-108.88671875,0.0
1687369134.9086726,-112.3046875,263.671875,25.390625,-113.76953125,0.0
1687369134.9125605,-108.88671875,277.34375,42.48046875,-100.09765625,0.0
1687369134.916448,-58.59375,-222.65625,38.0859375,-88.8671875,0.0
1687369134.920336,-126.953125,-509.765625,44.921875,-125.0,0.0
1687369134.9242237,-162.59765625,-171.875,46.38671875,-176.26953125,0.0
1687369134.9281116,-167.48046875,-17.08984375,24.4140625,-169.921875,0.0
1687369134.9319992,-95.703125,-520.5078125,21.97265625,-114.2578125,0.0
1687369134.935887,-102.5390625,-633.7890625,20.99609375,-116.69921875,0.0
1687369134.9397748,-127.44140625,150.87890625,-3.41796875,-131.8359375,0.0
1687369134.9436626,-113.28125,425.29296875,-10.7421875,-99.609375,0.0
1687369134.9477816,-64.94140625,-121.58203125,-1.953125,-61.5234375,0.0
1687369134.9516692,-32.2265625,-321.77734375,-12.6953125,-48.33984375,0.0
1687369134.955557,-81.0546875,233.3984375,-25.87890625,-63.96484375,0.0
1687369134.9594448,-71.77734375,347.65625,-30.76171875,-54.19921875,0.0
1687369134.9633327,-33.203125,-95.703125,-37.59765625,-23.92578125,0.0
1687369134.9672205,15.625,-594.23828125,-37.109375,1.953125,0.0
1687369134.9711082,-41.50390625,-252.9296875,-40.52734375,-21.97265625,0.0
1687369134.974996,-28.80859375,339.35546875,-45.8984375,-29.296875,0.0
1687369134.978884,-18.06640625,-298.33984375,-44.43359375,6.8359375,0.0
1687369134.9827716,46.38671875,-939.94140625,-46.38671875,29.296875,0.0
1687369134.9866595,15.625,-149.90234375,-51.7578125,-3.90625,0.0
1687369134.9905474,-20.5078125,250.9765625,-64.94140625,-21.97265625,0.0
1687369134.994653,-30.76171875,83.984375,-56.640625,-11.23046875,0.0
1687369134.9985409,25.87890625,-107.421875,-50.78125,28.3203125,0.0
1687369135.0024285,17.08984375,2.44140625,-56.15234375,21.97265625,0.0
1687369135.0063164,-22.94921875,236.81640625,-44.921875,-2.44140625,0.0
1687369135.0102043,-20.5078125,121.09375,-40.0390625,-2.44140625,0.0
1687369135.0140922,11.71875,-219.23828125,-46.875,10.25390625,0.0
1687369135.01798,34.66796875,-497.55859375,-52.24609375,15.625,0.0
1687369135.0218678,-12.6953125,-307.6171875,-51.7578125,2.44140625,0.0
1687369135.0257556,-14.6484375,-469.7265625,-56.15234375,0.0,0.0
1687369135.0296435,1.953125,-232.421875,-58.10546875,16.11328125,0.0
1687369135.0335314,53.7109375,-66.40625,-59.5703125,36.62109375,0.0
1687369135.037419,-10.25390625,-246.58203125,-51.7578125,15.13671875,0.0
1687369135.041519,-17.08984375,-55.6640625,-44.921875,5.37109375,0.0
1687369135.0454068,-7.8125,230.46875,-59.5703125,13.671875,0.0
1687369135.0492947,54.6875,-71.2890625,-65.91796875,41.9921875,0.0
1687369135.0531826,17.08984375,-297.36328125,-52.734375,24.4140625,0.0
1687369135.0570705,-9.765625,28.80859375,-40.52734375,-5.859375,0.0
1687369135.0609584,-1.953125,68.84765625,-49.31640625,-0.48828125,0.0
1687369135.064846,39.55078125,-274.4140625,-58.59375,19.53125,0.0
1687369135.068734,36.1328125,-706.0546875,-49.31640625,18.06640625,0.0
1687369135.0726218,-17.578125,-388.18359375,-48.33984375,0.0,0.0
1687369135.0765097,-25.390625,381.34765625,-39.55078125,0.0,0.0
1687369135.0803976,7.32421875,157.2265625,-31.25,16.6015625,0.0
1687369135.0842855,41.9921875,-482.421875,-39.0625,24.90234375,0.0
1687369135.0883813,-23.4375,-100.5859375,-42.96875,-7.8125,0.0
1687369135.0922692,-15.625,446.2890625,-47.8515625,-8.7890625,0.0
1687369135.096157,7.32421875,55.17578125,-49.8046875,10.7421875,0.0
1687369135.100045,53.7109375,-404.296875,-43.9453125,23.92578125,0.0
1687369135.1039329,-0.9765625,1.953125,-31.25,4.39453125,0.0
1687369135.1078207,-14.6484375,184.08203125,-32.71484375,-9.765625,0.0
1687369135.1117086,-20.99609375,-184.08203125,-44.921875,-3.90625,0.0
1687369135.1155965,33.69140625,-832.03125,-47.8515625,25.87890625,0.0
1687369135.1194844,3.90625,-526.85546875,-45.8984375,12.20703125,0.0
1687369135.1233723,-30.76171875,304.6875,-44.921875,-22.94921875,0.0
1687369135.1272602,-24.4140625,164.55078125,-42.96875,-17.08984375,0.0
1687369135.131148,27.83203125,-245.1171875,-34.1796875,17.578125,0.0
1687369135.135223,33.69140625,-163.57421875,-28.3203125,28.3203125,0.0
1687369135.1391108,-32.71484375,233.88671875,-31.73828125,-2.9296875,0.0
1687369135.1429987,-32.71484375,135.7421875,-41.50390625,-10.25390625,0.0
1687369135.1468866,-4.39453125,-66.89453125,-48.828125,2.9296875,0.0
1687369135.1507747,33.203125,-238.28125,-41.50390625,20.99609375,0.0
1687369135.1546626,-31.25,-148.92578125,-42.96875,-4.8828125,0.0
1687369135.1585505,-31.73828125,-407.71484375,-41.50390625,-21.97265625,0.0
1687369135.1624384,-16.6015625,-575.68359375,-37.109375,-4.39453125,0.0
1687369135.1663263,39.0625,-161.62109375,-41.50390625,13.18359375,0.0
1687369135.1702142,-13.18359375,-79.58984375,-37.109375,-11.23046875,0.0
1687369135.1741023,-28.80859375,66.40625,-39.55078125,-21.97265625,0.0
1687369135.1779902,-30.2734375,218.26171875,-43.45703125,-11.71875,0.0
1687369135.1820552,21.484375,17.08984375,-43.45703125,5.37109375,0.0
1687369135.1859431,2.44140625,-196.77734375,-44.921875,-0.48828125,0.0
1687369135.189831,-41.015625,-83.984375,-36.62109375,-20.01953125,0.0
1687369135.193719,-25.390625,186.5234375,-33.203125,-20.99609375,0.0
1687369135.197607,20.5078125,44.43359375,-44.43359375,7.32421875,0.0
1687369135.201495,35.15625,-472.65625,-50.78125,19.53125,0.0
1687369135.2053828,-33.203125,-648.92578125,-33.69140625,-7.32421875,0.0
1687369135.2092707,-41.50390625,-346.19140625,-28.80859375,-20.01953125,0.0
1687369135.2131588,-8.7890625,-121.58203125,-27.34375,-9.765625,0.0
1687369135.2170467,50.78125,-422.8515625,-25.87890625,20.5078125,0.0
1687369135.2209346,-13.18359375,-214.35546875,-38.0859375,5.859375,0.0
1687369135.2248225,-29.296875,333.49609375,-42.48046875,-16.11328125,0.0
1687369135.2289562,-17.08984375,244.140625,-30.2734375,-6.34765625,0.0
1687369135.2328444,46.38671875,-367.67578125,-35.15625,17.578125,0.0
1687369135.2367322,8.30078125,-294.921875,-43.9453125,-7.32421875,0.0
1687369135.2406204,-29.78515625,312.5,-30.76171875,-22.94921875,0.0
1687369135.2445083,-21.484375,298.33984375,-27.34375,-4.8828125,0.0
1687369135.2483962,35.64453125,-506.8359375,-30.76171875,23.92578125,0.0
1687369135.2522843,14.6484375,-642.08984375,-30.76171875,1.953125,0.0
1687369135.2561722,-27.83203125,227.05078125,-36.1328125,-31.73828125,0.0
1687369135.2600603,-38.57421875,390.625,-37.59765625,-20.5078125,0.0
1687369135.2639482,-10.25390625,-284.1796875,-46.875,2.44140625,0.0
1687369135.267836,28.80859375,-657.71484375,-53.7109375,2.9296875,0.0
1687369135.2717242,-34.1796875,-129.8828125,-41.015625,-27.34375,0.0
1687369135.27585,-40.0390625,145.5078125,-40.0390625,-32.71484375,0.0
1687369135.2797382,-20.01953125,-92.28515625,-41.9921875,-9.27734375,0.0
1687369135.283626,42.48046875,-280.2734375,-27.83203125,20.99609375,0.0
1687369135.2875142,-15.625,12.6953125,-25.87890625,-0.48828125,0.0
1687369135.291402,-29.78515625,173.828125,-35.64453125,-13.18359375,0.0
1687369135.2952902,-24.4140625,-208.49609375,-39.55078125,-6.34765625,0.0
1687369135.2991784,29.296875,-572.265625,-38.57421875,10.25390625,0.0
1687369135.3030663,9.765625,-453.125,-34.1796875,9.765625,0.0
1687369135.3069544,-15.625,-241.2109375,-34.66796875,3.90625,0.0
1687369135.3108423,-17.578125,-393.06640625,-39.0625,0.0,0.0
1687369135.3147304,20.01953125,-270.01953125,-41.015625,7.32421875,0.0
1687369135.3186183,0.9765625,-13.18359375,-47.8515625,4.8828125,0.0
1687369135.322736,-57.6171875,30.76171875,-44.921875,-25.390625,0.0
1687369135.3266242,-55.6640625,-95.703125,-49.8046875,-31.73828125,0.0
1687369135.330512,-20.5078125,2.9296875,-56.15234375,-11.71875,0.0
1687369135.3344002,13.18359375,-40.52734375,-48.33984375,4.39453125,0.0
1687369135.3382883,-48.828125,-82.03125,-44.43359375,-13.671875,0.0
1687369135.3421762,-45.41015625,-132.32421875,-32.71484375,-18.5546875,0.0
1687369135.3460643,-20.01953125,-91.796875,-36.1328125,-11.71875,0.0
1687369135.3499525,47.36328125,-83.49609375,-41.015625,12.20703125,0.0
1687369135.3538406,-21.484375,-529.296875,-31.25,-3.90625,0.0
1687369135.3577285,-49.8046875,-485.3515625,-29.78515625,-18.06640625,0.0
1687369135.3616166,-41.50390625,208.0078125,-25.87890625,-17.08984375,0.0
1687369135.3655047,18.06640625,-129.8828125,-29.296875,17.08984375,0.0
1687369135.3696122,-6.8359375,-334.47265625,-39.0625,13.671875,0.0
1687369135.3735003,-44.921875,167.96875,-36.62109375,-26.3671875,0.0
1687369135.3773882,-43.45703125,377.9296875,-34.1796875,-22.4609375,0.0
1687369135.3812764,5.859375,-101.07421875,-36.1328125,6.8359375,0.0
1687369135.3851645,8.30078125,-529.78515625,-37.59765625,6.8359375,0.0
1687369135.3890526,-47.8515625,-190.4296875,-36.1328125,-25.390625,0.0
1687369135.3929408,-35.15625,54.6875,-49.8046875,-27.34375,0.0
1687369135.396829,-13.671875,-234.86328125,-59.08203125,-12.20703125,0.0
1687369135.4007168,31.25,-773.4375,-53.7109375,3.41796875,0.0
1687369135.404605,-32.2265625,-142.578125,-44.43359375,-11.71875,0.0
1687369135.408493,-27.34375,493.65234375,-22.4609375,-20.01953125,0.0
1687369135.4123812,-16.11328125,114.74609375,-20.99609375,-11.23046875,0.0
1687369135.4164772,29.78515625,-320.80078125,-27.34375,4.8828125,0.0
1687369135.4203653,-20.01953125,-44.921875,-29.296875,-13.671875,0.0
1687369135.4242535,-46.875,291.015625,-40.0390625,-37.59765625,0.0
1687369135.4281416,-45.8984375,68.84765625,-38.57421875,-31.73828125,0.0
1687369135.4320297,11.23046875,-285.15625,-30.76171875,-5.37109375,0.0
1687369135.4359179,-2.9296875,-409.1796875,-32.2265625,-18.06640625,0.0
1687369135.439806,-48.828125,-148.4375,-39.55078125,-41.9921875,0.0
1687369135.443694,-42.48046875,-411.1328125,-41.9921875,-27.34375,0.0
1687369135.4475822,2.9296875,-698.2421875,-43.45703125,4.8828125,0.0
1687369135.4514704,20.99609375,-192.3828125,-49.8046875,2.44140625,0.0
1687369135.4553585,-45.41015625,81.0546875,-42.48046875,-24.90234375,0.0
1687369135.4592466,-39.0625,53.22265625,-36.62109375,-25.390625,0.0
1687369135.4633327,-12.6953125,77.1484375,-29.296875,-13.18359375,0.0
1687369135.4672208,27.34375,-39.0625,-32.71484375,-0.9765625,0.0
1687369135.471109,-36.62109375,-24.90234375,-27.83203125,-17.08984375,0.0
1687369135.474997,-37.59765625,62.01171875,-15.625,-25.87890625,0.0
1687369135.4788854,-27.83203125,108.88671875,-18.06640625,-15.13671875,0.0
1687369135.4827735,29.78515625,-296.875,-22.4609375,2.44140625,0.0
1687369135.4866617,-20.99609375,-518.5546875,-19.53125,-20.01953125,0.0
1687369135.4905498,-57.12890625,-514.6484375,-19.04296875,-28.80859375,0.0
1687369135.494438,-41.015625,-85.44921875,-31.73828125,-20.99609375,0.0
1687369135.498326,12.6953125,-134.27734375,-28.80859375,5.859375,0.0
1687369135.5022142,0.0,-567.3828125,-24.90234375,-0.48828125,0.0
1687369135.5061023,-43.9453125,-47.8515625,-39.0625,-26.3671875,0.0
1687369135.5101783,-42.96875,363.28125,-46.875,-28.80859375,0.0
1687369135.5140665,-16.6015625,81.54296875,-37.59765625,-7.32421875,0.0
1687369135.5179546,26.3671875,-437.01171875,-17.578125,7.32421875,0.0
1687369135.521843,-32.2265625,-99.609375,-11.23046875,-26.3671875,0.0
1687369135.525731,-38.0859375,267.08984375,-14.16015625,-30.76171875,0.0
1687369135.5296192,-14.6484375,-119.140625,-18.06640625,-6.34765625,0.0
1687369135.5335073,45.8984375,-817.3828125,-26.85546875,18.06640625,0.0
1687369135.5373955,-16.11328125,-659.66796875,-31.73828125,5.37109375,0.0
1687369135.5412838,-35.64453125,202.1484375,-27.83203125,-18.06640625,0.0
1687369135.545172,-31.73828125,193.84765625,-21.97265625,-20.99609375,0.0
1687369135.54906,21.484375,-331.54296875,-29.296875,5.37109375,0.0
1687369135.5529482,-20.01953125,-228.515625,-39.0625,0.0,0.0
1687369135.5570147,-45.41015625,68.84765625,-34.66796875,-21.484375,0.0
1687369135.560903,-38.57421875,0.0,-31.73828125,-21.97265625,0.0
1687369135.5647912,4.39453125,-303.22265625,-33.203125,-0.9765625,0.0
1687369135.5686793,18.06640625,-248.53515625,-33.69140625,2.9296875,0.0
1687369135.5725677,-46.38671875,109.86328125,-31.73828125,-22.4609375,0.0
1687369135.5764558,-45.41015625,-41.9921875,-32.71484375,-17.08984375,0.0
1687369135.580344,-7.32421875,-685.546875,-33.203125,0.0,0.0
1687369135.584232,39.0625,-773.4375,-27.83203125,4.39453125,0.0
1687369135.5881205,-27.34375,-3.41796875,-35.64453125,-14.6484375,0.0
1687369135.5920086,-39.0625,65.91796875,-39.0625,-19.53125,0.0
1687369135.5958967,-29.78515625,-138.671875,-33.203125,-8.7890625,0.0
1687369135.599785,38.0859375,-169.921875,-41.50390625,9.765625,0.0
1687369135.6038413,-9.27734375,-27.34375,-42.96875,-2.44140625,0.0
1687369135.6077294,-33.203125,39.0625,-38.0859375,-21.484375,0.0
1687369135.6116178,-35.64453125,-79.58984375,-42.96875,-30.2734375,0.0
1687369135.615506,14.16015625,-316.89453125,-47.36328125,-5.37109375,0.0
1687369135.619394,-6.34765625,-196.77734375,-51.7578125,-8.7890625,0.0
1687369135.6232824,-45.8984375,-116.69921875,-56.640625,-26.3671875,0.0
1687369135.6271706,-42.48046875,-189.94140625,-41.9921875,-22.94921875,0.0
1687369135.631059,-6.34765625,-121.09375,-30.2734375,-8.7890625,0.0
1687369135.634947,20.99609375,-233.3984375,-23.4375,0.48828125,0.0
1687369135.6388354,-25.390625,-423.828125,-27.34375,-14.6484375,0.0
1687369135.6427236,-33.69140625,-242.67578125,-38.0859375,-21.484375,0.0
1687369135.6466117,-23.4375,119.62890625,-37.109375,-17.578125,0.0
1687369135.6507313,21.97265625,-325.1953125,-30.76171875,-1.46484375,0.0
1687369135.6546197,-44.43359375,-277.34375,-25.390625,-21.97265625,0.0
1687369135.6585078,-43.45703125,177.734375,-29.78515625,-34.1796875,0.0
1687369135.6623962,-24.90234375,220.703125,-40.0390625,-24.90234375,0.0
1687369135.6662846,36.1328125,-337.40234375,-31.73828125,0.9765625,0.0
1687369135.6701727,-15.13671875,-668.9453125,-34.1796875,-13.671875,0.0
1687369135.674061,-51.7578125,-302.24609375,-51.26953125,-33.69140625,0.0
1687369135.6779492,-41.9921875,-174.31640625,-49.31640625,-23.92578125,0.0
1687369135.6818376,19.04296875,-620.1171875,-34.1796875,-3.41796875,0.0
1687369135.6857257,0.9765625,-763.18359375,-23.92578125,-3.90625,0.0
1687369135.689614,-60.05859375,-56.15234375,-28.3203125,-41.9921875,0.0
1687369135.6935022,-60.546875,293.9453125,-45.41015625,-38.57421875,0.0
1687369135.6976118,-11.23046875,-208.49609375,-47.36328125,-2.9296875,0.0
1687369135.7015002,14.16015625,-483.88671875,-40.52734375,-2.9296875,0.0
1687369135.7053885,-48.33984375,1.46484375,-29.296875,-28.80859375,0.0
1687369135.709277,-44.43359375,195.80078125,-16.11328125,-40.0390625,0.0
1687369135.713165,-23.92578125,-123.53515625,-22.94921875,-16.6015625,0.0
1687369135.7170534,43.45703125,-665.0390625,-35.64453125,18.5546875,0.0
1687369135.7209418,-21.97265625,-391.11328125,-43.45703125,-9.27734375,0.0
1687369135.72483,-36.1328125,193.84765625,-37.59765625,-24.4140625,0.0
1687369135.7287183,-32.2265625,-404.296875,-34.66796875,-15.625,0.0
1687369135.7326066,22.94921875,-876.953125,-34.1796875,1.953125,0.0
1687369135.7364948,-9.27734375,-143.06640625,-27.83203125,-11.23046875,0.0
1687369135.7403831,-36.62109375,160.15625,-29.296875,-21.97265625,0.0
1687369135.7444832,-33.203125,-133.7890625,-34.66796875,-16.11328125,0.0
1687369135.7483716,4.8828125,-394.04296875,-40.0390625,-7.8125,0.0
1687369135.7522597,-2.44140625,-237.3046875,-37.109375,-14.16015625,0.0
1687369135.756148,-52.734375,-50.78125,-36.1328125,-32.71484375,0.0
1687369135.7600365,-50.78125,-129.39453125,-35.15625,-38.0859375,0.0
1687369135.7639248,-14.16015625,-379.39453125,-31.73828125,0.0,0.0
1687369135.7678132,20.99609375,-639.6484375,-37.109375,29.296875,0.0
1687369135.7717016,-53.22265625,-492.1875,-47.36328125,-19.53125,0.0
1687369135.7755897,-49.31640625,-509.27734375,-50.29296875,-37.109375,0.0
1687369135.779478,-23.4375,-207.03125,-34.66796875,-8.30078125,0.0
1687369135.7833664,33.203125,-197.75390625,-27.83203125,10.25390625,0.0
1687369135.7872548,-21.97265625,-382.8125,-37.109375,-15.13671875,0.0
1687369135.7913437,-31.73828125,-45.8984375,-34.1796875,-41.015625,0.0
1687369135.795232,-20.99609375,226.5625,-23.92578125,-36.1328125,0.0
1687369135.7991204,32.71484375,-137.6953125,-26.85546875,-1.46484375,0.0
1687369135.8030088,8.30078125,-421.38671875,-28.80859375,-4.8828125,0.0
1687369135.8068972,-33.203125,-64.453125,-32.71484375,-20.99609375,0.0
1687369135.8107855,-45.41015625,-46.875,-40.0390625,-25.390625,0.0
1687369135.814674,-0.48828125,-448.2421875,-39.0625,-9.27734375,0.0
1687369135.8185623,16.6015625,-895.5078125,-37.59765625,3.90625,0.0
1687369135.8224506,-48.33984375,-654.296875,-31.73828125,-28.80859375,0.0
1687369135.826339,-52.734375,184.08203125,-27.83203125,-41.50390625,0.0
1687369135.8302274,-20.5078125,5.859375,-29.296875,-6.34765625,0.0
1687369135.8341157,39.0625,-521.97265625,-24.90234375,15.13671875,0.0
1687369135.8381953,-20.99609375,-137.6953125,-35.15625,-20.99609375,0.0
1687369135.8420837,-35.64453125,150.390625,-40.52734375,-32.71484375,0.0
1687369135.845972,-20.5078125,-236.328125,-39.0625,-24.90234375,0.0
1687369135.8498604,35.15625,-565.4296875,-37.59765625,-7.32421875,0.0
1687369135.8537488,-16.11328125,-267.08984375,-34.66796875,-8.30078125,0.0
1687369135.8576372,-35.64453125,-84.47265625,-41.50390625,-12.6953125,0.0
1687369135.8615255,-51.7578125,-321.77734375,-37.109375,-24.4140625,0.0
1687369135.865414,-9.27734375,-813.4765625,-35.15625,-20.99609375,0.0
1687369135.8693023,-2.44140625,-516.11328125,-30.2734375,-9.27734375,0.0
1687369135.8731906,-51.7578125,216.30859375,-27.83203125,-34.66796875,0.0
1687369135.877079,-71.2890625,7.8125,-35.15625,-55.17578125,0.0
1687369135.8809674,-17.08984375,-337.40234375,-35.64453125,-28.80859375,0.0
1687369135.8850374,16.11328125,-237.79296875,-34.1796875,-13.671875,0.0
1687369135.8889258,-43.45703125,83.49609375,-36.1328125,-34.1796875,0.0
1687369135.8928142,-44.921875,-124.51171875,-43.9453125,-37.109375,0.0
1687369135.8967028,-21.484375,-363.76953125,-50.29296875,-23.4375,0.0
1687369135.9005911,35.15625,-454.1015625,-57.12890625,-2.9296875,0.0
1687369135.9044795,-37.109375,-388.671875,-45.8984375,-24.4140625,0.0
1687369135.9083679,-50.29296875,-533.69140625,-31.25,-29.296875,0.0
1687369135.9122562,-38.0859375,-626.953125,-33.69140625,-8.7890625,0.0
1687369135.9161446,21.484375,-258.7890625,-39.55078125,10.7421875,0.0
1687369135.9200332,-14.6484375,-186.03515625,-47.36328125,-10.25390625,0.0
1687369135.9239216,-48.33984375,-39.55078125,-39.0625,-29.296875,0.0
1687369135.92781,-48.828125,106.4453125,-32.71484375,-16.11328125,0.0
1687369135.9318724,12.20703125,-40.52734375,-38.0859375,1.46484375,0.0
1687369135.9357607,13.671875,-314.453125,-35.15625,7.8125,0.0
1687369135.9396493,-45.41015625,-192.3828125,-33.69140625,-10.25390625,0.0
1687369135.9435377,-49.31640625,145.99609375,-37.59765625,-18.06640625,0.0
1687369135.947426,-10.7421875,-49.8046875,-35.64453125,7.32421875,0.0
1687369135.9513147,25.87890625,-632.32421875,-32.71484375,8.30078125,0.0
1687369135.955203,-38.57421875,-825.68359375,-32.71484375,-20.01953125,0.0
1687369135.9590914,-41.50390625,-459.9609375,-30.76171875,-18.06640625,0.0
1687369135.9629798,-7.8125,-284.1796875,-35.15625,-5.37109375,0.0
1687369135.9668684,50.78125,-720.21484375,-35.15625,7.8125,0.0
1687369135.9707568,-18.06640625,-370.60546875,-27.83203125,-25.390625,0.0
1687369135.9746451,-38.57421875,202.1484375,-27.83203125,-39.0625,0.0
1687369135.978771,-32.71484375,183.10546875,-40.0390625,-22.94921875,0.0
1687369135.9826593,32.71484375,-377.44140625,-41.9921875,5.859375,0.0
1687369135.9865477,-4.8828125,-441.40625,-36.1328125,-6.34765625,0.0
1687369135.9904363,-39.55078125,167.96875,-41.015625,-34.66796875,0.0
1687369135.9943247,-22.94921875,218.75,-43.9453125,-27.83203125,0.0
1687369135.9982133,18.06640625,-478.515625,-39.0625,7.32421875,0.0
1687369136.0021017,11.71875,-747.55859375,-27.34375,6.34765625,0.0
1687369136.00599,-33.203125,-45.41015625,-28.3203125,-30.76171875,0.0
1687369136.0098786,-27.34375,250.0,-42.48046875,-36.1328125,0.0
1687369136.013767,-16.6015625,-461.9140625,-41.9921875,-16.6015625,0.0
1687369136.0176556,17.08984375,-861.81640625,-28.3203125,-1.953125,0.0
1687369136.021544,-40.0390625,-43.45703125,-36.1328125,-25.87890625,0.0
1687369136.02566,-34.1796875,158.203125,-44.43359375,-35.64453125,0.0
1687369136.0295484,-20.01953125,-259.27734375,-38.0859375,-28.80859375,0.0
1687369136.033437,40.0390625,-461.9140625,-39.0625,-9.27734375,0.0
1687369136.0373254,-25.390625,-129.39453125,-35.15625,-27.83203125,0.0
1687369136.041214,-51.7578125,74.21875,-33.203125,-48.828125,0.0
1687369136.0451024,-36.1328125,-253.41796875,-47.8515625,-29.296875,0.0
1687369136.048991,21.97265625,-632.8125,-46.875,1.46484375,0.0
1687369136.0528796,3.41796875,-563.4765625,-33.69140625,-8.7890625,0.0
1687369136.056768,-39.0625,-343.75,-36.1328125,-34.1796875,0.0
1687369136.0606565,-47.8515625,-354.98046875,-41.9921875,-31.73828125,0.0
1687369136.064545,-10.25390625,-208.984375,-41.9921875,-13.18359375,0.0
1687369136.0684335,17.08984375,-125.9765625,-35.15625,-6.34765625,0.0
1687369136.0725393,-38.0859375,-289.55078125,-39.0625,-18.06640625,0.0
1687369136.076428,-34.66796875,-408.69140625,-38.0859375,-13.18359375,0.0
1687369136.0803165,-13.18359375,-18.5546875,-39.55078125,-6.34765625,0.0
1687369136.084205,33.203125,-170.41015625,-40.0390625,3.90625,0.0
1687369136.0880935,-24.4140625,-277.34375,-41.015625,-16.11328125,0.0
1687369136.0919821,-38.0859375,-215.8203125,-46.38671875,-21.484375,0.0
1687369136.0958705,-21.484375,-137.20703125,-36.1328125,-10.7421875,0.0
1687369136.099759,48.33984375,-205.56640625,-24.4140625,4.8828125,0.0
1687369136.1036477,-3.41796875,-673.33984375,-23.92578125,-5.859375,0.0
1687369136.107536,-22.94921875,-556.15234375,-39.0625,-16.6015625,0.0
1687369136.1114247,-20.01953125,130.859375,-46.875,-17.08984375,0.0
1687369136.1153133,28.3203125,-184.08203125,-40.52734375,8.30078125,0.0
1687369136.1194093,18.06640625,-439.453125,-42.48046875,2.44140625,0.0
1687369136.123298,-40.52734375,79.1015625,-36.62109375,-24.90234375,0.0
1687369136.1271865,-48.33984375,267.08984375,-36.1328125,-22.4609375,0.0
1687369136.1310751,-10.25390625,-253.90625,-36.62109375,-6.34765625,0.0
1687369136.1349638,23.92578125,-595.703125,-25.87890625,4.39453125,0.0
1687369136.1388521,-35.15625,-235.83984375,-24.90234375,-26.3671875,0.0
1687369136.1427407,-44.921875,-95.703125,-20.01953125,-34.66796875,0.0
1687369136.1466293,-22.4609375,-388.18359375,-15.625,-14.6484375,0.0
1687369136.150518,50.78125,-852.05078125,-20.5078125,12.6953125,0.0
1687369136.1544065,-16.11328125,-286.1328125,-12.6953125,-17.578125,0.0
1687369136.158295,-44.43359375,351.07421875,-11.71875,-45.41015625,0.0
1687369136.1621835,-42.96875,85.44921875,-16.11328125,-28.3203125,0.0
1687369136.1663458,15.625,-420.41015625,-18.5546875,9.27734375,0.0
1687369136.1702344,-18.06640625,-260.7421875,-26.3671875,5.859375,0.0
1687369136.174123,-51.26953125,243.65234375,-27.83203125,-26.3671875,0.0
1687369136.1780117,-48.33984375,107.91015625,-31.73828125,-29.296875,0.0
1687369136.1819003,1.953125,-287.59765625,-32.71484375,-7.32421875,0.0
1687369136.1857889,10.25390625,-488.76953125,-27.34375,-2.9296875,0.0
1687369136.1896775,-41.9921875,-180.17578125,-25.87890625,-25.390625,0.0
1687369136.193566,-43.9453125,-408.203125,-26.85546875,-25.390625,0.0
1687369136.1974547,-8.30078125,-726.07421875,-23.92578125,-0.48828125,0.0
1687369136.2013433,32.2265625,-258.30078125,-21.484375,-1.46484375,0.0
1687369136.205232,-41.50390625,-13.18359375,-21.484375,-26.85546875,0.0
1687369136.2091205,-51.26953125,12.6953125,-19.53125,-30.76171875,0.0
1687369136.213197,-20.99609375,50.78125,-26.3671875,-9.765625,0.0
1687369136.2170856,45.41015625,-157.71484375,-40.52734375,13.18359375,0.0
1687369136.2209742,-17.08984375,-216.796875,-41.015625,-10.7421875,0.0
1687369136.2248628,-43.45703125,-98.14453125,-30.2734375,-24.4140625,0.0
1687369136.2287514,-40.0390625,34.66796875,-26.85546875,-13.18359375,0.0
1687369136.23264,27.83203125,-379.8828125,-39.0625,2.9296875,0.0
1687369136.2365289,7.8125,-686.03515625,-35.64453125,-6.34765625,0.0
1687369136.2404175,-42.96875,-382.8125,-23.4375,-29.296875,0.0
1687369136.244306,-37.59765625,-5.859375,-26.3671875,-32.71484375,0.0
1687369136.2481947,12.20703125,-282.2265625,-27.83203125,5.859375,0.0
1687369136.2520833,12.20703125,-745.1171875,-15.625,7.8125,0.0
1687369136.255972,-48.33984375,-624.0234375,-16.6015625,-21.97265625,0.0
1687369136.260039,-38.57421875,20.5078125,-20.99609375,-20.99609375,0.0
1687369136.2639277,-8.30078125,71.77734375,-21.484375,-5.859375,0.0
1687369136.2678163,36.1328125,-514.6484375,-37.109375,11.71875,0.0
1687369136.2717052,-26.3671875,-235.83984375,-43.45703125,-13.671875,0.0
1687369136.2755938,-34.1796875,208.49609375,-37.59765625,-27.83203125,0.0
1687369136.2794824,-22.94921875,-145.99609375,-42.48046875,-20.99609375,0.0
1687369136.283371,38.57421875,-845.21484375,-49.31640625,6.34765625,0.0
1687369136.2872596,-15.625,-651.85546875,-42.96875,-4.39453125,0.0
1687369136.2911484,-43.45703125,220.21484375,-38.57421875,-27.34375,0.0
1687369136.295037,-42.96875,238.28125,-39.55078125,-28.3203125,0.0
1687369136.2989256,14.16015625,-263.671875,-36.1328125,-8.30078125,0.0
1687369136.3028142,11.23046875,-358.3984375,-25.87890625,-4.39453125,0.0
1687369136.3068733,-36.1328125,37.109375,-30.2734375,-16.6015625,0.0
1687369136.310762,-43.45703125,165.52734375,-36.1328125,-18.06640625,0.0
1687369136.3146505,-7.32421875,-258.7890625,-34.66796875,-11.71875,0.0
1687369136.3185391,18.5546875,-347.16796875,-29.78515625,-11.71875,0.0
1687369136.322428,-34.1796875,29.296875,-27.83203125,-28.80859375,0.0
1687369136.3263166,-37.59765625,-29.78515625,-33.69140625,-29.296875,0.0
1687369136.3302052,-19.04296875,-704.1015625,-25.390625,-7.8125,0.0
1687369136.334094,41.015625,-810.05859375,-20.01953125,12.20703125,0.0
1687369136.3379827,-12.20703125,-64.453125,-22.94921875,-14.16015625,0.0
1687369136.3418713,-35.64453125,6.34765625,-31.73828125,-28.3203125,0.0
1687369136.34576,-39.55078125,-132.8125,-40.52734375,-14.16015625,0.0
1687369136.3496487,30.2734375,-193.359375,-33.203125,12.20703125,0.0
1687369136.353774,-3.90625,-101.07421875,-28.80859375,2.44140625,0.0
1687369136.357663,-28.80859375,-36.62109375,-29.296875,-21.97265625,0.0
1687369136.3615515,-28.80859375,-241.2109375,-26.85546875,-24.90234375,0.0
1687369136.3654401,30.2734375,-299.8046875,-17.578125,-0.9765625,0.0
1687369136.369329,20.01953125,-231.93359375,-10.25390625,-7.8125,0.0
1687369136.3732176,-53.7109375,-375.48828125,-19.53125,-29.78515625,0.0
1687369136.3771064,-56.640625,-442.3828125,-24.90234375,-16.6015625,0.0
1687369136.380995,-15.625,-211.42578125,-24.4140625,0.0,0.0
1687369136.3848839,28.80859375,-270.01953125,-23.92578125,-11.23046875,0.0
1687369136.3887725,-45.41015625,-386.23046875,-33.203125,-41.015625,0.0
1687369136.3926613,-62.98828125,-111.81640625,-40.0390625,-39.55078125,0.0
1687369136.39655,-36.1328125,108.3984375,-42.96875,-22.94921875,0.0
1687369136.400668,35.15625,-360.3515625,-33.69140625,-7.8125,0.0
1687369136.4045565,-19.04296875,-355.46875,-24.4140625,-31.25,0.0
1687369136.4084454,-22.4609375,121.09375,-24.90234375,-37.59765625,0.0
1687369136.412334,-23.92578125,250.9765625,-26.3671875,-23.92578125,0.0
1687369136.4162228,24.4140625,-291.015625,-26.3671875,-3.90625,0.0
1687369136.4201117,0.0,-633.7890625,-33.203125,-10.25390625,0.0
1687369136.4240003,-44.43359375,-301.26953125,-45.41015625,-28.80859375,0.0
1687369136.427889,-54.6875,-180.17578125,-43.45703125,-24.4140625,0.0
1687369136.4317777,6.34765625,-581.0546875,-32.71484375,8.30078125,0.0
1687369136.4356666,21.484375,-863.28125,-28.3203125,11.71875,0.0
1687369136.4395552,-33.203125,-167.48046875,-34.66796875,-32.2265625,0.0
1687369136.443444,-37.109375,315.4296875,-41.50390625,-46.38671875,0.0
1687369136.4475498,-17.578125,-165.0390625,-41.50390625,-13.671875,0.0
1687369136.4514387,31.73828125,-496.58203125,-28.80859375,8.7890625,0.0
1687369136.4553275,-29.78515625,2.44140625,-25.87890625,-24.90234375,0.0
1687369136.459216,-48.828125,280.2734375,-35.15625,-38.57421875,0.0
1687369136.463105,-29.296875,-79.1015625,-30.2734375,-14.6484375,0.0
1687369136.4669938,47.36328125,-677.734375,-21.97265625,3.90625,0.0
1687369136.4708827,-12.20703125,-451.171875,-22.4609375,-19.04296875,0.0
1687369136.4747713,-46.38671875,101.5625,-32.71484375,-37.109375,0.0
1687369136.47866,-53.22265625,-452.63671875,-33.69140625,-19.04296875,0.0
1687369136.482549,13.18359375,-882.32421875,-30.2734375,14.6484375,0.0
1687369136.4864376,7.8125,-215.8203125,-34.66796875,-1.953125,0.0
1687369136.4903264,-40.52734375,95.21484375,-40.0390625,-23.4375,0.0
1687369136.4944239,-51.26953125,-28.3203125,-41.9921875,-20.01953125,0.0
1687369136.4983127,-1.46484375,-145.99609375,-40.52734375,-0.9765625,0.0
1687369136.5022016,19.53125,-181.15234375,-36.62109375,-4.39453125,0.0
1687369136.5060904,-60.546875,5.859375,-25.390625,-36.1328125,0.0
1687369136.509979,-48.33984375,-79.58984375,-18.5546875,-30.2734375,0.0
1687369136.5138679,-13.18359375,-389.16015625,-27.34375,-6.34765625,0.0
1687369136.5177567,17.08984375,-629.8828125,-35.15625,-8.7890625,0.0
1687369136.5216455,-50.78125,-503.41796875,-34.1796875,-32.2265625,0.0
1687369136.5255344,-64.453125,-490.234375,-39.0625,-42.96875,0.0
1687369136.5294232,-34.1796875,-186.5234375,-32.71484375,-33.69140625,0.0
1687369136.5333118,28.3203125,-304.19921875,-25.87890625,5.37109375,0.0
1687369136.5372007,-22.94921875,-523.92578125,-30.76171875,-4.39453125,0.0
1687369136.5412867,-47.8515625,-20.99609375,-31.25,-32.2265625,0.0
1687369136.5451753,-51.26953125,285.64453125,-36.1328125,-35.15625,0.0
1687369136.5490642,4.39453125,-58.59375,-43.9453125,-12.20703125,0.0
1687369136.552953,-4.8828125,-399.4140625,-39.55078125,-17.08984375,0.0
1687369136.5568419,-52.734375,-42.48046875,-37.59765625,-42.48046875,0.0
1687369136.5607307,-47.36328125,-13.18359375,-39.55078125,-33.69140625,0.0
1687369136.5646195,-5.859375,-402.83203125,-43.9453125,-10.25390625,0.0
1687369136.5685084,20.99609375,-881.8359375,-47.36328125,3.41796875,0.0
1687369136.5723972,-44.921875,-642.08984375,-35.64453125,-20.5078125,0.0
1687369136.576286,-52.734375,179.19921875,-32.71484375,-39.0625,0.0
1687369136.580175,-30.76171875,42.48046875,-29.296875,-18.06640625,0.0
1687369136.5840638,37.109375,-429.6875,-25.87890625,5.859375,0.0
1687369136.5881407,-16.11328125,-199.70703125,-41.015625,-19.04296875,0.0
1687369136.5920296,-37.109375,-44.921875,-41.015625,-30.76171875,0.0
1687369136.5959184,-33.69140625,-260.25390625,-30.2734375,-28.80859375,0.0
1687369136.5998073,31.73828125,-482.91015625,-24.90234375,-7.8125,0.0
1687369136.603696,-4.8828125,-250.0,-22.4609375,-15.625,0.0
1687369136.607585,-43.9453125,-80.078125,-28.3203125,-34.66796875,0.0
1687369136.6114738,-48.828125,-239.74609375,-29.296875,-20.01953125,0.0
1687369136.6153626,4.8828125,-728.02734375,-34.1796875,9.27734375,0.0
1687369136.6192515,18.06640625,-523.92578125,-38.57421875,4.8828125,0.0
1687369136.6231403,-28.80859375,245.1171875,-44.43359375,-13.18359375,0.0
1687369136.6270292,-37.109375,107.91015625,-41.50390625,-16.6015625,0.0
1687369136.630918,-25.87890625,-231.93359375,-32.71484375,-22.94921875,0.0
1687369136.6349926,15.13671875,-194.3359375,-30.2734375,-0.9765625,0.0
1687369136.6388814,-42.48046875,94.7265625,-26.85546875,-17.578125,0.0
1687369136.6427703,-53.22265625,70.3125,-35.64453125,-44.921875,0.0
1687369136.6466591,-27.83203125,-146.484375,-45.41015625,-15.625,0.0
1687369136.6505482,41.50390625,-493.65234375,-38.0859375,20.01953125,0.0
1687369136.654437,-15.13671875,-403.3203125,-33.69140625,-13.671875,0.0
1687369136.658326,-33.203125,-427.24609375,-42.48046875,-20.5078125,0.0
1687369136.6622148,-21.484375,-518.5546875,-43.9453125,-5.859375,0.0
1687369136.6661036,34.1796875,-154.296875,-41.015625,4.8828125,0.0
1687369136.6699924,1.953125,-108.3984375,-39.55078125,-6.34765625,0.0
1687369136.6738813,-43.9453125,20.01953125,-31.73828125,-28.80859375,0.0
1687369136.6777704,-44.921875,219.23828125,-18.06640625,-20.01953125,0.0
1687369136.6818335,12.6953125,96.19140625,-20.01953125,8.30078125,0.0
1687369136.6857224,19.53125,-271.484375,-28.80859375,8.7890625,0.0
1687369136.6896114,-43.9453125,-142.08984375,-31.25,-24.4140625,0.0
1687369136.6935003,-35.64453125,210.9375,-32.2265625,-35.15625,0.0
1687369136.6973891,-5.37109375,70.3125,-31.25,-16.6015625,0.0
1687369136.701278,32.71484375,-553.22265625,-36.1328125,0.48828125,0.0
1687369136.705167,-34.1796875,-862.79296875,-41.015625,-17.578125,0.0
1687369136.709056,-40.0390625,-488.76953125,-41.015625,-32.71484375,0.0
1687369136.7129447,-27.83203125,-68.84765625,-29.78515625,-27.34375,0.0
1687369136.7168336,27.83203125,-354.4921875,-25.87890625,-3.41796875,0.0
1687369136.7207227,-15.625,-335.9375,-28.80859375,-21.97265625,0.0
1687369136.7246115,-39.0625,207.03125,-29.296875,-41.015625,0.0
1687369136.7286627,-41.9921875,315.91796875,-35.64453125,-37.59765625,0.0
1687369136.7325516,22.4609375,-263.18359375,-36.1328125,-9.27734375,0.0
1687369136.7364407,5.859375,-383.30078125,-33.69140625,-2.9296875,0.0
1687369136.7403295,-45.8984375,194.3359375,-41.9921875,-24.4140625,0.0
1687369136.7442186,-39.55078125,243.1640625,-41.015625,-18.5546875,0.0
1687369136.7481074,0.9765625,-491.69921875,-33.203125,12.6953125,0.0
1687369136.7519963,12.20703125,-756.34765625,-36.62109375,6.34765625,0.0
1687369136.7558854,-41.015625,54.19921875,-38.0859375,-34.1796875,0.0
1687369136.7597742,-43.9453125,309.08203125,-36.1328125,-34.66796875,0.0
1687369136.763663,-25.87890625,-388.671875,-29.78515625,-7.8125,0.0
1687369136.7675521,29.78515625,-641.11328125,-33.69140625,-0.48828125,0.0
1687369136.771441,-19.04296875,39.55078125,-34.1796875,-25.390625,0.0
1687369136.775558,-27.83203125,187.01171875,-23.92578125,-29.296875,0.0
1687369136.7794468,-18.06640625,-145.5078125,-27.34375,-12.20703125,0.0
1687369136.783336,48.828125,-374.0234375,-38.0859375,18.06640625,0.0
1687369136.7872248,-0.9765625,-107.91015625,-34.1796875,2.9296875,0.0
1687369136.7911139,-22.4609375,73.73046875,-27.34375,-24.90234375,0.0
1687369136.7950027,-17.08984375,-260.25390625,-23.92578125,-20.99609375,0.0
1687369136.7988918,23.4375,-592.28515625,-15.13671875,10.7421875,0.0
1687369136.8027806,15.625,-575.1953125,-21.484375,4.8828125,0.0
1687369136.8066697,-41.9921875,-349.12109375,-33.203125,-19.53125,0.0
1687369136.8105586,-52.734375,-355.46875,-43.45703125,-21.484375,0.0
1687369136.8144476,-13.671875,-128.41796875,-42.96875,-5.37109375,0.0
1687369136.8183365,19.53125,-140.13671875,-34.66796875,10.25390625,0.0
1687369136.8224435,-43.45703125,-207.51953125,-28.3203125,-20.5078125,0.0
1687369136.8263323,-39.0625,15.13671875,-27.34375,-33.69140625,0.0
1687369136.8302214,-25.390625,145.5078125,-26.3671875,-8.7890625,0.0
1687369136.8341105,21.97265625,-195.3125,-21.484375,8.7890625,0.0
1687369136.8379993,-30.2734375,-313.96484375,-27.83203125,-15.13671875,0.0
1687369136.8418884,-43.45703125,-192.3828125,-38.0859375,-30.76171875,0.0
1687369136.8457773,-29.296875,-97.16796875,-42.96875,-19.04296875,0.0
1687369136.8496664,43.45703125,-106.93359375,-38.0859375,11.23046875,0.0
1687369136.8535554,-3.90625,-588.37890625,-24.4140625,1.46484375,0.0
1687369136.8574443,-42.96875,-507.8125,-15.13671875,-19.53125,0.0
1687369136.8613334,-38.0859375,265.625,-16.6015625,-24.90234375,0.0
1687369136.8652222,1.46484375,-14.16015625,-26.85546875,-5.37109375,0.0
1687369136.8693175,6.34765625,-361.328125,-26.3671875,-5.37109375,0.0
1687369136.8732066,-56.640625,94.23828125,-22.4609375,-29.78515625,0.0
1687369136.8770957,-60.05859375,222.16796875,-29.296875,-27.34375,0.0
1687369136.8809845,-14.6484375,-266.11328125,-27.34375,0.48828125,0.0
1687369136.8848736,27.83203125,-496.58203125,-20.01953125,8.7890625,0.0
1687369136.8887627,-28.3203125,-205.56640625,-25.390625,-23.4375,0.0
1687369136.8926518,-23.4375,-80.56640625,-30.76171875,-29.78515625,0.0
1687369136.8965406,-21.484375,-293.45703125,-28.80859375,-7.8125,0.0
1687369136.9004297,34.66796875,-790.0390625,-24.4140625,20.01953125,0.0
1687369136.9043188,-0.9765625,-305.17578125,-18.06640625,1.46484375,0.0
1687369136.9082077,-21.97265625,377.9296875,-31.25,-9.765625,0.0
1687369136.9120967,-26.85546875,65.4296875,-46.38671875,-14.16015625,0.0
1687369136.9161868,22.94921875,-355.46875,-34.1796875,-2.44140625,0.0
1687369136.920076,-14.6484375,-98.6328125,-23.4375,-7.32421875,0.0
1687369136.923965,-47.36328125,269.04296875,-28.80859375,-34.1796875,0.0
1687369136.927854,-30.76171875,137.20703125,-26.3671875,-34.66796875,0.0
1687369136.931743,6.34765625,-177.24609375,-29.78515625,-12.20703125,0.0
1687369136.935632,13.671875,-399.90234375,-48.33984375,3.41796875,0.0
1687369136.939521,-41.9921875,-158.203125,-41.50390625,-22.4609375,0.0
1687369136.9434102,-37.109375,-359.86328125,-25.390625,-29.296875,0.0
1687369136.9472992,-13.671875,-576.66015625,-30.2734375,-11.23046875,0.0
1687369136.9511883,29.296875,-182.6171875,-31.73828125,-1.46484375,0.0
1687369136.9550772,-36.62109375,12.20703125,-32.2265625,-28.3203125,0.0
1687369136.9589663,-38.57421875,122.0703125,-42.96875,-44.921875,0.0
1687369136.9630423,-18.06640625,133.7890625,-36.1328125,-38.0859375,0.0
1687369136.9669313,36.62109375,-56.640625,-33.69140625,-16.11328125,0.0
1687369136.9708204,-21.97265625,-125.0,-39.55078125,-19.04296875,0.0
1687369136.9747095,-48.828125,31.73828125,-35.15625,-34.1796875,0.0
1687369136.9785986,-41.9921875,245.1171875,-42.96875,-34.1796875,0.0
1687369136.9824877,28.80859375,-189.94140625,-51.7578125,-4.8828125,0.0
1687369136.9863768,6.34765625,-537.109375,-49.31640625,-0.9765625,0.0
1687369136.9902658,-57.12890625,-502.44140625,-44.43359375,-22.94921875,0.0
1687369136.994155,-54.6875,-284.66796875,-44.921875,-40.0390625,0.0
1687369136.998044,-20.5078125,-55.6640625,-48.33984375,-32.2265625,0.0
1687369137.001933,7.32421875,-366.69921875,-42.96875,-20.99609375,0.0
1687369137.0058222,-45.41015625,-161.62109375,-24.90234375,-40.52734375,0.0
1687369137.009889,-30.76171875,218.26171875,-20.01953125,-30.2734375,0.0
1687369137.013778,-0.9765625,-1.46484375,-27.34375,-14.16015625,0.0
1687369137.017667,36.62109375,-427.734375,-25.390625,-0.48828125,0.0
1687369137.0215561,-38.0859375,-202.63671875,-24.4140625,-17.578125,0.0
1687369137.0254452,-41.50390625,250.9765625,-24.90234375,-31.25,0.0
1687369137.0293343,-26.3671875,-67.87109375,-20.5078125,-23.4375,0.0
1687369137.0332234,29.296875,-763.18359375,-20.01953125,-0.9765625,0.0
1687369137.0371125,-16.11328125,-657.2265625,-19.53125,-1.46484375,0.0
1687369137.0410016,-48.828125,194.82421875,-23.4375,-25.390625,0.0
1687369137.0448906,-39.0625,269.04296875,-37.59765625,-29.78515625,0.0
1687369137.04878,11.71875,-265.625,-36.1328125,0.9765625,0.0
1687369137.052669,2.9296875,-442.3828125,-28.3203125,3.41796875,0.0
1687369137.056726,-47.36328125,127.9296875,-30.76171875,-24.90234375,0.0
1687369137.060615,-43.45703125,282.2265625,-29.78515625,-28.3203125,0.0
1687369137.0645041,-0.48828125,-183.59375,-31.25,-1.953125,0.0
1687369137.0683935,38.57421875,-321.2890625,-38.0859375,0.9765625,0.0
1687369137.0722826,-35.15625,69.82421875,-34.1796875,-38.0859375,0.0
1687369137.0761716,-45.8984375,76.171875,-24.4140625,-42.48046875,0.0
1687369137.0800607,-20.5078125,-608.88671875,-19.53125,-13.671875,0.0
1687369137.0839498,46.38671875,-800.78125,-18.5546875,22.4609375,0.0
1687369137.087839,-17.578125,-73.73046875,-18.5546875,-7.8125,0.0
1687369137.0917282,-46.38671875,102.5390625,-30.76171875,-43.9453125,0.0
1687369137.0956173,-47.36328125,4.39453125,-38.57421875,-26.85546875,0.0
1687369137.0995064,17.578125,-29.78515625,-35.64453125,2.9296875,0.0
1687369137.1036277,-13.671875,-0.48828125,-32.71484375,-19.04296875,0.0
1687369137.1075168,-48.33984375,-17.578125,-20.01953125,-37.109375,0.0
1687369137.1114058,-41.50390625,-57.6171875,-21.484375,-32.2265625,0.0
1687369137.1152952,8.7890625,5.859375,-24.90234375,-15.625,0.0
1687369137.1191843,13.671875,-95.703125,-27.34375,-19.53125,0.0
1687369137.1230733,-48.828125,-321.2890625,-28.3203125,-38.57421875,0.0
1687369137.1269627,-41.50390625,-278.80859375,-22.94921875,-33.203125,0.0
1687369137.1308517,-8.30078125,96.6796875,-28.3203125,-16.11328125,0.0
1687369137.1347408,28.3203125,-132.8125,-29.78515625,4.39453125,0.0
1687369137.13863,-31.25,-327.1484375,-26.85546875,-11.23046875,0.0
1687369137.1425192,-29.296875,-41.50390625,-20.99609375,-25.87890625,0.0
1687369137.1464083,-12.20703125,213.8671875,-20.99609375,-21.484375,0.0
1687369137.1505198,47.36328125,-193.359375,-21.97265625,1.46484375,0.0
1687369137.154409,-5.859375,-257.32421875,-17.578125,-11.23046875,0.0
1687369137.1582983,-27.83203125,213.37890625,-20.01953125,-20.01953125,0.0
1687369137.1621873,-38.0859375,330.078125,-27.83203125,-8.7890625,0.0
1687369137.1660764,7.8125,-254.8828125,-32.71484375,7.32421875,0.0
1687369137.1699657,-11.71875,-592.28515625,-33.203125,-16.11328125,0.0
1687369137.1738548,-51.26953125,-203.61328125,-41.015625,-46.875,0.0
1687369137.1777442,-51.7578125,-28.80859375,-41.50390625,-40.0390625,0.0
1687369137.1816332,-8.7890625,-408.69140625,-37.59765625,-10.25390625,0.0
1687369137.1855226,2.9296875,-789.55078125,-33.69140625,0.0,0.0
1687369137.1894116,-45.8984375,-69.3359375,-34.1796875,-24.4140625,0.0
1687369137.1933007,-26.85546875,474.609375,-44.921875,-30.76171875,0.0
1687369137.197403,-10.7421875,17.578125,-41.9921875,-8.30078125,0.0
1687369137.2012923,30.76171875,-389.16015625,-33.69140625,2.44140625,0.0
1687369137.2051816,-36.1328125,63.96484375,-26.85546875,-31.25,0.0
1687369137.2090707,-39.55078125,420.41015625,-28.3203125,-30.76171875,0.0
1687369137.21296,-23.4375,33.69140625,-31.25,-8.30078125,0.0
1687369137.216849,34.1796875,-564.94140625,-26.3671875,16.11328125,0.0
1687369137.2207384,-12.6953125,-398.92578125,-25.87890625,-5.859375,0.0
1687369137.2246275,-44.921875,73.73046875,-37.59765625,-38.57421875,0.0
1687369137.2285168,-34.66796875,-303.7109375,-37.59765625,-18.06640625,0.0
1687369137.232406,23.92578125,-662.109375,-29.296875,14.16015625,0.0
1687369137.2362952,5.37109375,-69.82421875,-23.92578125,-6.8359375,0.0
1687369137.2401843,-48.828125,220.21484375,-21.484375,-24.90234375,0.0
1687369137.244277,-44.921875,114.2578125,-25.87890625,-24.4140625,0.0
1687369137.2481663,-6.34765625,32.71484375,-32.71484375,-14.6484375,0.0
1687369137.2520554,21.97265625,-67.3828125,-28.3203125,-1.46484375,0.0
1687369137.2559447,-41.015625,43.45703125,-22.94921875,-32.71484375,0.0
1687369137.259834,-38.0859375,-51.26953125,-28.80859375,-36.62109375,0.0
1687369137.2637231,-22.4609375,-221.19140625,-34.1796875,-12.6953125,0.0
1687369137.2676125,23.92578125,-479.4921875,-30.76171875,9.765625,0.0
1687369137.2715018,-36.1328125,-432.6171875,-30.76171875,-9.27734375,0.0
1687369137.2753909,-39.0625,-392.578125,-36.1328125,-17.08984375,0.0
1687369137.2792802,-23.92578125,-109.375,-39.55078125,-9.27734375,0.0
1687369137.2831695,40.0390625,-262.20703125,-39.0625,15.13671875,0.0
1687369137.2870586,3.90625,-447.75390625,-35.15625,-0.9765625,0.0
1687369137.2911425,-34.66796875,86.9140625,-26.3671875,-35.64453125,0.0
1687369137.2950318,-39.55078125,386.23046875,-27.83203125,-31.25,0.0
1687369137.298921,1.46484375,72.75390625,-37.109375,-1.46484375,0.0
1687369137.3028104,7.8125,-293.9453125,-34.1796875,6.34765625,0.0
1687369137.3066998,-51.26953125,33.69140625,-26.3671875,-22.4609375,0.0
1687369137.3105888,-41.50390625,169.921875,-27.83203125,-21.484375,0.0
1687369137.3144782,2.44140625,-175.29296875,-39.55078125,-0.9765625,0.0
1687369137.3183675,18.06640625,-793.45703125,-39.55078125,7.32421875,0.0
1687369137.3222568,-52.24609375,-578.125,-39.55078125,-24.90234375,0.0
1687369137.326146,-48.828125,321.2890625,-44.921875,-43.9453125,0.0
1687369137.3300352,-27.34375,201.171875,-39.55078125,-28.3203125,0.0
1687369137.3339245,34.1796875,-285.64453125,-39.55078125,-0.48828125,0.0
1687369137.3380709,-20.01953125,-173.33984375,-36.62109375,-15.13671875,0.0
1687369137.34196,-38.0859375,175.78125,-40.52734375,-40.0390625,0.0
1687369137.3458493,-38.57421875,198.73046875,-48.33984375,-30.76171875,0.0
1687369137.3497386,15.13671875,-163.0859375,-34.66796875,3.41796875,0.0
1687369137.353628,-14.6484375,-118.1640625,-25.390625,-13.671875,0.0
1687369137.3575172,-40.52734375,25.87890625,-23.4375,-40.0390625,0.0
1687369137.3614066,-42.96875,-62.98828125,-19.53125,-38.0859375,0.0
1687369137.365296,-10.7421875,-615.234375,-27.34375,-12.6953125,0.0
1687369137.3691852,13.671875,-455.56640625,-26.85546875,-9.27734375,0.0
1687369137.3730745,-48.828125,306.15234375,-26.85546875,-41.9921875,0.0
1687369137.3769639,-63.4765625,194.82421875,-37.109375,-41.50390625,0.0
1687369137.3808532,-30.2734375,-62.5,-40.0390625,-18.06640625,0.0
1687369137.384926,20.5078125,-85.44921875,-40.0390625,-9.27734375,0.0
1687369137.3888154,-40.52734375,194.3359375,-34.66796875,-32.2265625,0.0
1687369137.3927047,-47.8515625,177.734375,-32.2265625,-41.50390625,0.0
1687369137.396594,-40.52734375,-144.53125,-36.62109375,-34.66796875,0.0
1687369137.4004834,24.4140625,-219.23828125,-41.50390625,-15.13671875,0.0
1687369137.4043727,-20.01953125,-161.62109375,-38.0859375,-28.3203125,0.0
1687369137.408262,-52.734375,-188.4765625,-32.71484375,-41.015625,0.0
1687369137.4121513,-50.29296875,-30.2734375,-32.71484375,-26.85546875,0.0
1687369137.4160407,16.11328125,-29.78515625,-28.80859375,1.953125,0.0
1687369137.41993,-0.9765625,-1.46484375,-28.3203125,-1.46484375,0.0
1687369137.4238193,-52.734375,-332.51953125,-31.25,-14.16015625,0.0
1687369137.4277086,-42.96875,-338.8671875,-29.78515625,-21.97265625,0.0
1687369137.4317667,-6.8359375,29.296875,-20.01953125,-7.32421875,0.0
1687369137.435656,7.32421875,-380.37109375,-22.4609375,10.7421875,0.0
1687369137.4395454,-52.24609375,-166.9921875,-34.66796875,-20.01953125,0.0
1687369137.4434347,-47.36328125,275.87890625,-40.0390625,-32.2265625,0.0
1687369137.447324,-23.92578125,167.48046875,-33.203125,-4.8828125,0.0
1687369137.4512134,35.15625,-442.3828125,-20.01953125,16.6015625,0.0
1687369137.4551027,-20.99609375,-833.0078125,-14.6484375,-3.90625,0.0
1687369137.458992,-42.96875,-511.23046875,-18.5546875,-16.6015625,0.0
1687369137.4628813,-26.3671875,20.99609375,-25.87890625,-8.30078125,0.0
1687369137.466771,47.36328125,-335.44921875,-28.3203125,14.6484375,0.0
1687369137.4706602,-0.48828125,-339.84375,-26.3671875,-5.37109375,0.0
1687369137.4745495,-42.48046875,304.19921875,-27.34375,-27.34375,0.0
1687369137.4785974,-41.015625,420.41015625,-21.484375,-21.97265625,0.0
1687369137.482487,8.7890625,-135.25390625,-27.83203125,-2.9296875,0.0
1687369137.4863763,3.90625,-281.25,-31.73828125,-5.859375,0.0
1687369137.4902656,-56.15234375,263.18359375,-25.87890625,-29.78515625,0.0
1687369137.494155,-61.03515625,400.87890625,-24.90234375,-21.97265625,0.0
1687369137.4980443,-18.06640625,-221.19140625,-24.90234375,5.859375,0.0
1687369137.5019338,23.4375,-611.81640625,-27.34375,9.27734375,0.0
1687369137.5058231,-37.59765625,38.57421875,-30.2734375,-17.578125,0.0
1687369137.5097125,-44.43359375,259.27734375,-26.3671875,-25.390625,0.0
1687369137.5136018,-34.66796875,-441.89453125,-34.66796875,-14.6484375,0.0
1687369137.517491,25.87890625,-666.50390625,-37.59765625,0.9765625,0.0
1687369137.5213807,-24.90234375,120.1171875,-20.99609375,-23.92578125,0.0
1687369137.5254922,-41.9921875,289.55078125,-26.3671875,-37.109375,0.0
1687369137.5293815,-34.66796875,2.9296875,-32.2265625,-24.4140625,0.0
1687369137.5332708,31.73828125,-185.546875,-27.83203125,8.7890625,0.0
1687369137.5371604,11.23046875,-13.671875,-28.80859375,0.48828125,0.0
1687369137.5410497,-34.66796875,147.94921875,-29.78515625,-30.2734375,0.0
1687369137.544939,-49.31640625,-213.37890625,-31.25,-25.390625,0.0
1687369137.5488286,10.7421875,-496.58203125,-28.80859375,5.37109375,0.0
1687369137.552718,18.06640625,-469.23828125,-32.2265625,-1.46484375,0.0
1687369137.5566072,-45.8984375,-293.9453125,-28.3203125,-38.57421875,0.0
1687369137.5604968,-37.59765625,-280.2734375,-24.90234375,-31.73828125,0.0
1687369137.5643861,-10.25390625,-59.08203125,-23.4375,-2.44140625,0.0
1687369137.5682755,42.48046875,-267.578125,-21.97265625,9.27734375,0.0
1687369137.5723772,-23.4375,-354.98046875,-26.85546875,-17.578125,0.0
1687369137.5762668,-35.15625,68.84765625,-38.0859375,-21.484375,0.0
1687369137.580156,-23.92578125,239.74609375,-32.2265625,-10.7421875,0.0
1687369137.5840454,45.41015625,-117.1875,-19.04296875,8.30078125,0.0
1687369137.587935,3.90625,-282.2265625,-23.4375,-5.37109375,0.0
1687369137.5918243,-23.4375,-202.1484375,-34.1796875,-26.85546875,0.0
1687369137.5957139,-24.4140625,-72.75390625,-35.64453125,-32.71484375,0.0
1687369137.5996032,33.69140625,-52.24609375,-33.203125,-4.8828125,0.0
1687369137.6034927,19.04296875,-641.11328125,-27.34375,14.16015625,0.0
1687369137.607382,-16.6015625,-534.66796875,-27.83203125,-11.71875,0.0
1687369137.6112716,-44.43359375,303.22265625,-18.06640625,-43.9453125,0.0
1687369137.615161,-23.4375,13.671875,-16.11328125,-27.34375,0.0
1687369137.6192527,19.53125,-390.625,-22.4609375,-10.25390625,0.0
1687369137.623142,-45.8984375,54.19921875,-16.11328125,-39.55078125,0.0
1687369137.6270316,-71.77734375,191.89453125,-17.578125,-49.31640625,0.0
1687369137.6309211,-36.62109375,-103.515625,-21.484375,-20.5078125,0.0
1687369137.6348104,30.2734375,-409.66796875,-20.5078125,1.953125,0.0
1687369137.6387,-35.15625,-284.66796875,-28.80859375,-22.4609375,0.0
1687369137.6425893,-43.9453125,-35.15625,-31.73828125,-32.71484375,0.0
1687369137.646479,-32.2265625,-194.82421875,-34.1796875,-24.90234375,0.0
1687369137.6503682,38.0859375,-746.58203125,-28.80859375,-0.48828125,0.0
1687369137.6542578,-16.6015625,-302.24609375,-24.4140625,-16.11328125,0.0
1687369137.6581473,-65.4296875,400.390625,-28.3203125,-38.57421875,0.0
1687369137.6620367,-64.453125,48.828125,-25.390625,-39.0625,0.0
1687369137.6661198,17.08984375,-351.5625,-26.85546875,-14.16015625,0.0
1687369137.6700094,22.94921875,-114.2578125,-26.85546875,-8.7890625,0.0
1687369137.6738987,-46.38671875,212.40234375,-31.73828125,-34.1796875,0.0
1687369137.6777883,-53.7109375,58.10546875,-31.25,-40.52734375,0.0
1687369137.6816778,-7.8125,-245.1171875,-33.203125,-14.16015625,0.0
1687369137.6855671,23.4375,-470.703125,-34.66796875,2.9296875,0.0
1687369137.6894567,-45.8984375,-211.42578125,-22.94921875,-27.34375,0.0
1687369137.6933463,-50.78125,-370.1171875,-20.01953125,-26.3671875,0.0
1687369137.6972358,-23.4375,-594.23828125,-20.5078125,0.9765625,0.0
1687369137.7011251,42.48046875,-244.140625,-20.99609375,12.6953125,0.0
1687369137.7050147,-26.85546875,-51.7578125,-25.87890625,-20.01953125,0.0
1687369137.7089043,-45.8984375,43.9453125,-34.66796875,-34.66796875,0.0
1687369137.7130497,-27.34375,113.28125,-26.85546875,-14.6484375,0.0
1687369137.716939,43.45703125,-117.67578125,-11.23046875,12.6953125,0.0
1687369137.7208285,4.39453125,-293.9453125,-14.6484375,-1.46484375,0.0
1687369137.724718,-39.0625,-49.31640625,-27.83203125,-22.4609375,0.0
1687369137.7286077,-43.45703125,186.03515625,-35.15625,-20.01953125,0.0
1687369137.7324972,14.16015625,-253.41796875,-30.2734375,2.44140625,0.0
1687369137.7363868,17.578125,-640.625,-27.83203125,-4.39453125,0.0
1687369137.740276,-43.45703125,-708.49609375,-29.296875,-29.78515625,0.0
1687369137.7441657,-48.828125,-297.8515625,-23.92578125,-25.87890625,0.0
1687369137.7480552,-19.53125,117.1875,-23.92578125,0.48828125,0.0
1687369137.7519448,25.87890625,-319.3359375,-22.94921875,2.9296875,0.0
1687369137.7558343,-32.2265625,-173.828125,-22.4609375,-38.57421875,0.0
1687369137.759899,-45.41015625,284.1796875,-36.1328125,-37.109375,0.0
1687369137.7637885,-31.73828125,201.171875,-38.0859375,-19.04296875,0.0
1687369137.767678,37.59765625,-345.703125,-35.15625,2.9296875,0.0
1687369137.7715676,-23.4375,-226.07421875,-25.390625,-12.6953125,0.0
1687369137.775457,-54.19921875,232.421875,-14.16015625,-30.2734375,0.0
1687369137.7793465,-42.48046875,-21.97265625,-21.97265625,-13.671875,0.0
1687369137.783236,31.73828125,-574.70703125,-26.3671875,14.6484375,0.0
1687369137.7871256,14.16015625,-345.703125,-17.578125,1.953125,0.0
1687369137.7910151,-29.78515625,327.63671875,-20.99609375,-16.11328125,0.0
1687369137.7949047,-40.52734375,346.6796875,-27.34375,-17.08984375,0.0
1687369137.7987943,6.34765625,-482.91015625,-26.3671875,3.90625,0.0
1687369137.8026838,17.08984375,-690.4296875,-27.34375,5.859375,0.0
1687369137.8067386,-40.52734375,207.51953125,-26.3671875,-26.3671875,0.0
1687369137.8106282,-43.9453125,289.0625,-29.78515625,-21.484375,0.0
1687369137.814518,-18.5546875,-198.2421875,-26.3671875,-0.48828125,0.0
1687369137.8184075,29.296875,-329.58984375,-33.203125,8.7890625,0.0
1687369137.822297,-39.55078125,70.3125,-34.66796875,-26.85546875,0.0
1687369137.8261867,-55.17578125,64.94140625,-31.25,-41.015625,0.0
1687369137.8300762,-41.50390625,-627.9296875,-32.2265625,-11.23046875,0.0
1687369137.8339658,35.64453125,-826.171875,-24.90234375,15.13671875,0.0
1687369137.8378553,-10.25390625,-71.77734375,-32.71484375,-14.16015625,0.0
1687369137.841745,-47.8515625,129.8828125,-30.76171875,-42.96875,0.0
1687369137.8456345,-44.921875,-18.5546875,-16.6015625,-23.92578125,0.0
1687369137.849524,34.1796875,-73.2421875,-22.4609375,9.27734375,0.0
1687369137.853571,13.671875,-135.7421875,-32.71484375,-19.04296875,0.0
1687369137.8574605,-52.24609375,-143.5546875,-32.71484375,-50.78125,0.0
1687369137.86135,-62.5,-3.90625,-31.73828125,-39.0625,0.0
1687369137.8652399,-8.7890625,57.12890625,-26.85546875,-10.7421875,0.0
1687369137.8691294,21.97265625,-142.578125,-36.62109375,-10.7421875,0.0
1687369137.873019,-49.31640625,-358.3984375,-50.78125,-29.296875,0.0
1687369137.8769085,-46.38671875,-260.25390625,-47.36328125,-23.92578125,0.0
1687369137.880798,-18.5546875,74.70703125,-33.203125,-10.25390625,0.0
1687369137.8846877,37.109375,-132.32421875,-17.08984375,3.41796875,0.0
1687369137.8885772,-20.99609375,-304.19921875,-7.8125,-14.16015625,0.0
1687369137.8924668,-48.33984375,-32.2265625,-12.20703125,-27.83203125,0.0
1687369137.8963563,-38.0859375,244.62890625,-26.3671875,-26.85546875,0.0
1687369137.9004648,48.828125,-183.59375,-31.25,3.41796875,0.0
1687369137.9043546,-6.34765625,-291.9921875,-25.87890625,-17.08984375,0.0
1687369137.9082441,-53.22265625,179.6875,-23.92578125,-41.9921875,0.0
1687369137.9121337,-45.8984375,225.5859375,-32.71484375,-19.04296875,0.0
1687369137.9160233,11.23046875,-408.203125,-35.15625,6.34765625,0.0
1687369137.919913,8.30078125,-717.7734375,-30.2734375,-7.8125,0.0
1687369137.9238026,-41.9921875,-339.84375,-38.57421875,-20.99609375,0.0
1687369137.9276922,-48.33984375,-30.76171875,-43.45703125,-16.6015625,0.0
1687369137.9315817,-9.765625,-299.8046875,-37.59765625,-6.8359375,0.0
1687369137.9354715,25.390625,-726.07421875,-41.015625,1.953125,0.0
1687369137.939361,-40.52734375,-99.609375,-49.8046875,-22.94921875,0.0
1687369137.9432507,-49.31640625,381.34765625,-34.1796875,-23.4375,0.0
1687369137.9474204,-31.25,-59.08203125,-15.13671875,-7.32421875,0.0
1687369137.95131,35.15625,-473.14453125,-14.6484375,4.8828125,0.0
1687369137.9551995,-20.01953125,-27.34375,-14.16015625,-3.90625,0.0
1687369137.9590893,-40.0390625,330.56640625,-21.484375,-20.5078125,0.0
1687369137.9629788,-42.96875,-11.71875,-30.2734375,-26.3671875,0.0
1687369137.9668684,26.85546875,-616.69921875,-33.69140625,3.41796875,0.0
1687369137.9707582,1.46484375,-504.8828125,-36.1328125,-12.6953125,0.0
1687369137.9746478,-51.26953125,7.8125,-38.57421875,-39.0625,0.0
1687369137.9785376,-65.91796875,-339.84375,-41.50390625,-26.3671875,0.0
1687369137.9824271,-1.953125,-695.80078125,-44.43359375,-1.46484375,0.0
1687369137.9863167,10.25390625,-119.62890625,-34.66796875,-11.71875,0.0
1687369137.9902065,-62.5,217.28515625,-31.73828125,-31.25,0.0
1687369137.9942944,-58.59375,168.45703125,-33.69140625,-21.484375,0.0
1687369137.9981842,-12.6953125,41.015625,-30.76171875,-12.20703125,0.0
1687369138.0020738,32.71484375,-49.8046875,-40.52734375,-4.39453125,0.0
1687369138.0059636,-39.0625,59.08203125,-39.0625,-20.5078125,0.0
1687369138.0098531,-50.78125,51.26953125,-29.78515625,-25.87890625,0.0
1687369138.013743,-36.1328125,-131.8359375,-32.2265625,-13.671875,0.0
1687369138.0176325,27.34375,-544.921875,-28.3203125,1.953125,0.0
1687369138.0215223,-22.4609375,-525.390625,-30.2734375,-22.94921875,0.0
1687369138.0254118,-44.43359375,-169.921875,-26.85546875,-39.0625,0.0
1687369138.0293016,-42.48046875,-78.125,-20.01953125,-31.25,0.0
1687369138.0331912,21.484375,-197.75390625,-33.203125,-4.39453125,0.0
1687369138.037081,-9.27734375,-334.9609375,-40.52734375,-9.765625,0.0
1687369138.0411594,-60.05859375,-442.3828125,-31.25,-26.85546875,0.0
1687369138.0450492,-55.6640625,66.89453125,-21.484375,-21.484375,0.0
1687369138.0489388,-5.859375,63.96484375,-23.92578125,-2.44140625,0.0
1687369138.0528286,12.6953125,-357.91015625,-28.80859375,-3.90625,0.0
1687369138.0567183,-48.33984375,-40.0390625,-39.0625,-30.76171875,0.0
1687369138.060608,-57.12890625,106.4453125,-45.8984375,-28.3203125,0.0
1687369138.0644977,-27.83203125,-259.765625,-36.62109375,-11.23046875,0.0
1687369138.0683873,27.34375,-836.9140625,-30.76171875,13.671875,0.0
1687369138.072277,-38.0859375,-611.328125,-34.1796875,-8.7890625,0.0
1687369138.0761669,-53.7109375,293.9453125,-32.2265625,-29.78515625,0.0
1687369138.0800564,-36.1328125,260.25390625,-26.3671875,-7.32421875,0.0
1687369138.0839462,45.8984375,-333.984375,-25.390625,11.23046875,0.0
1687369138.0880156,-3.90625,-258.30078125,-30.2734375,-16.6015625,0.0
1687369138.0919054,-41.015625,312.01171875,-32.2265625,-36.1328125,0.0
1687369138.0957952,-45.8984375,268.06640625,-30.76171875,-27.34375,0.0
1687369138.099685,9.765625,-250.48828125,-38.0859375,0.48828125,0.0
1687369138.1035745,7.8125,-197.75390625,-37.109375,-8.30078125,0.0
1687369138.1074643,-42.96875,75.1953125,-36.1328125,-31.73828125,0.0
1687369138.111354,-54.6875,-23.92578125,-36.1328125,-31.25,0.0
1687369138.1152437,-14.16015625,-589.35546875,-30.76171875,-13.671875,0.0
1687369138.1191335,24.90234375,-490.72265625,-35.15625,-4.39453125,0.0
1687369138.1230233,-40.0390625,268.06640625,-39.55078125,-23.4375,0.0
1687369138.1269128,-58.59375,208.49609375,-41.015625,-37.109375,0.0
1687369138.1308026,-23.4375,-66.89453125,-31.73828125,-18.06640625,0.0
1687369138.134863,33.203125,-144.53125,-27.83203125,13.18359375,0.0
1687369138.1387527,-26.3671875,87.890625,-38.0859375,-12.20703125,0.0
1687369138.1426425,-39.0625,46.875,-40.0390625,-30.76171875,0.0
1687369138.146532,-41.9921875,-145.01953125,-30.76171875,-16.6015625,0.0
1687369138.1504219,33.69140625,-170.41015625,-24.4140625,9.27734375,0.0
1687369138.1543117,4.39453125,-183.59375,-20.99609375,-17.08984375,0.0
1687369138.1582015,-38.57421875,-402.34375,-22.4609375,-46.875,0.0
1687369138.1620913,-54.19921875,-487.3046875,-34.1796875,-36.1328125,0.0
1687369138.1659808,5.859375,-74.70703125,-28.80859375,0.9765625,0.0
1687369138.1698706,11.71875,-106.93359375,-12.20703125,12.6953125,0.0
1687369138.1737604,-41.50390625,-17.08984375,-18.5546875,-20.5078125,0.0
1687369138.1776502,-46.38671875,209.9609375,-26.3671875,-32.71484375,0.0
1687369138.181702,-17.08984375,114.2578125,-27.83203125,-7.32421875,0.0
1687369138.1855917,23.92578125,-194.3359375,-34.1796875,-1.953125,0.0
1687369138.1894813,-35.64453125,-108.3984375,-28.3203125,-18.06640625,0.0
1687369138.193371,-35.15625,221.6796875,-18.5546875,-18.5546875,0.0
1687369138.1972609,-11.71875,104.98046875,-22.4609375,-5.859375,0.0
1687369138.2011507,39.55078125,-519.04296875,-27.83203125,0.0,0.0
1687369138.2050405,-21.97265625,-828.61328125,-24.90234375,-22.4609375,0.0
1687369138.2089303,-41.9921875,-479.4921875,-28.80859375,-27.34375,0.0
1687369138.21282,-36.62109375,1.953125,-32.2265625,-21.97265625,0.0
1687369138.2167099,52.734375,-344.7265625,-27.83203125,6.8359375,0.0
1687369138.2205997,23.4375,-415.0390625,-28.80859375,4.39453125,0.0
1687369138.2244892,-27.83203125,195.80078125,-37.109375,-17.08984375,0.0
1687369138.228534,-23.92578125,313.96484375,-37.59765625,-11.23046875,0.0
1687369138.2324238,22.4609375,-227.05078125,-38.0859375,8.7890625,0.0
1687369138.2363136,33.203125,-465.33203125,-36.1328125,4.8828125,0.0
1687369138.2402034,-24.4140625,117.67578125,-33.203125,-15.13671875,0.0
1687369138.2440932,-32.71484375,364.74609375,-32.71484375,-17.08984375,0.0
1687369138.247983,0.0,-391.11328125,-27.83203125,9.765625,0.0
1687369138.2518728,41.015625,-817.87109375,-26.3671875,21.97265625,0.0
1687369138.2557626,-38.0859375,-23.4375,-25.87890625,-8.30078125,0.0
1687369138.2596524,-45.41015625,71.77734375,-27.34375,-20.99609375,0.0
1687369138.2635422,-27.34375,-429.6875,-26.3671875,-14.6484375,0.0
1687369138.267432,30.76171875,-546.38671875,-25.87890625,1.46484375,0.0
1687369138.2713218,-18.06640625,-28.3203125,-23.4375,-14.16015625,0.0
1687369138.275426,-41.50390625,136.23046875,-21.484375,-27.34375,0.0
1687369138.2793157,-41.9921875,-77.1484375,-21.97265625,-19.04296875,0.0
1687369138.2832057,26.3671875,-240.234375,-23.4375,12.6953125,0.0
1687369138.2870955,5.859375,-113.28125,-25.390625,0.0,0.0
1687369138.2909853,-43.9453125,61.5234375,-24.4140625,-28.80859375,0.0
1687369138.2948751,-46.38671875,-271.97265625,-34.66796875,-22.94921875,0.0
1687369138.298765,-1.953125,-528.3203125,-41.015625,2.44140625,0.0
1687369138.3026547,6.8359375,-545.8984375,-29.78515625,5.37109375,0.0
1687369138.3065445,-47.36328125,-379.8828125,-25.390625,-23.92578125,0.0
1687369138.3104343,-41.50390625,-374.51171875,-44.43359375,-21.97265625,0.0
1687369138.3143241,-13.671875,-235.3515625,-47.36328125,2.9296875,0.0
1687369138.318214,37.59765625,-463.8671875,-37.109375,6.34765625,0.0
1687369138.3223088,-22.94921875,-456.0546875,-30.76171875,-16.11328125,0.0
1687369138.3261986,-30.76171875,0.9765625,-21.484375,-26.85546875,0.0
1687369138.3300884,-22.4609375,159.1796875,-23.92578125,-23.92578125,0.0
1687369138.3339782,42.48046875,-179.19921875,-28.80859375,6.8359375,0.0
1687369138.337868,-4.39453125,-333.984375,-26.85546875,-5.859375,0.0
1687369138.341758,-28.80859375,-273.4375,-26.3671875,-15.625,0.0
1687369138.3456478,-21.97265625,-108.3984375,-22.4609375,-6.8359375,0.0
1687369138.3495376,29.78515625,-94.23828125,-26.3671875,10.25390625,0.0
