time,TP9,AF7,AF8,TP10,Right AUX
1686009814.3980687,-2.44140625,-52.24609375,-71.2890625,-13.671875,0.0
1686009814.4019725,5.37109375,-49.31640625,-71.77734375,-9.27734375,0.0
1686009814.4058764,-3.90625,-41.9921875,-69.3359375,-21.97265625,0.0
1686009814.4097803,8.7890625,-41.50390625,-72.265625,-13.671875,0.0
1686009814.4136841,18.5546875,-41.9921875,-70.80078125,-6.34765625,0.0
1686009814.417588,6.8359375,-43.9453125,-64.453125,-11.71875,0.0
1686009814.4214919,7.32421875,-41.015625,-63.96484375,-17.08984375,0.0
1686009814.4253957,16.11328125,-37.109375,-62.98828125,-11.23046875,0.0
1686009814.4292996,35.15625,-43.9453125,-65.91796875,11.71875,0.0
1686009814.4332035,16.11328125,-53.22265625,-65.4296875,9.765625,0.0
1686009814.4371073,-10.25390625,-52.734375,-63.96484375,-19.04296875,0.0
1686009814.4410112,3.41796875,-48.828125,-63.96484375,-20.99609375,0.0
1686009814.4449651,31.25,-43.45703125,-59.08203125,5.859375,0.0
1686009814.448869,27.34375,-39.55078125,-59.08203125,5.37109375,0.0
1686009814.4527729,-13.671875,-47.8515625,-62.98828125,-16.6015625,0.0
1686009814.4566767,-13.671875,-53.22265625,-58.10546875,-14.6484375,0.0
1686009814.4605806,3.90625,-47.36328125,-51.26953125,-11.71875,0.0
1686009814.4644845,4.8828125,-46.38671875,-55.6640625,-13.671875,0.0
1686009814.4683883,-14.6484375,-50.78125,-60.546875,-30.76171875,0.0
1686009814.4722922,-14.16015625,-54.19921875,-55.17578125,-25.390625,0.0
1686009814.476196,0.0,-60.546875,-51.26953125,0.0,0.0
1686009814.4801,2.44140625,-60.05859375,-54.6875,-2.9296875,0.0
1686009814.4840038,-8.30078125,-52.24609375,-55.6640625,-20.5078125,0.0
1686009814.4879076,-7.8125,-47.36328125,-48.33984375,-20.99609375,0.0
1686009814.4918592,-1.46484375,-50.29296875,-51.7578125,-19.04296875,0.0
1686009814.495763,5.859375,-51.26953125,-60.05859375,-8.7890625,0.0
1686009814.499667,3.41796875,-53.22265625,-60.05859375,-9.765625,0.0
1686009814.5035708,-0.48828125,-50.78125,-55.6640625,-17.578125,0.0
1686009814.5074747,4.39453125,-51.7578125,-52.734375,1.46484375,0.0
1686009814.5113785,16.11328125,-56.15234375,-57.6171875,13.671875,0.0
1686009814.5152824,19.04296875,-53.22265625,-54.19921875,5.859375,0.0
1686009814.5191863,0.0,-51.7578125,-42.96875,-9.765625,0.0
1686009814.5230901,-6.34765625,-48.33984375,-42.96875,-13.671875,0.0
1686009814.526994,10.7421875,-38.0859375,-40.52734375,-5.859375,0.0
1686009814.5308979,11.23046875,-42.48046875,-45.8984375,-9.765625,0.0
1686009814.5348017,-21.97265625,-57.12890625,-52.734375,-33.69140625,0.0
1686009814.538751,-28.3203125,-54.19921875,-47.8515625,-36.62109375,0.0
1686009814.5426548,-12.6953125,-53.22265625,-48.828125,-27.83203125,0.0
1686009814.5465586,2.44140625,-62.5,-54.19921875,-12.6953125,0.0
1686009814.5504625,-10.25390625,-66.40625,-54.6875,-18.06640625,0.0
1686009814.5543664,-25.390625,-67.87109375,-56.640625,-27.83203125,0.0
1686009814.5582702,-12.6953125,-59.08203125,-61.03515625,-21.484375,0.0
1686009814.562174,5.37109375,-49.31640625,-52.734375,-9.765625,0.0
1686009814.566078,-0.9765625,-55.6640625,-50.78125,-11.23046875,0.0
1686009814.5699818,-27.83203125,-62.01171875,-57.6171875,-41.50390625,0.0
1686009814.5738854,-20.5078125,-54.6875,-51.7578125,-36.62109375,0.0
1686009814.5777893,-6.8359375,-55.6640625,-50.78125,-21.484375,0.0
1686009814.5816932,-5.859375,-66.40625,-50.29296875,-14.16015625,0.0
1686009814.585644,-29.78515625,-67.3828125,-53.7109375,-26.85546875,0.0
1686009814.5895479,-36.1328125,-66.89453125,-60.05859375,-37.59765625,0.0
1686009814.5934517,-18.5546875,-67.3828125,-57.6171875,-22.94921875,0.0
1686009814.5973556,-9.765625,-63.4765625,-51.26953125,-12.6953125,0.0
1686009814.6012595,-24.4140625,-56.640625,-52.734375,-27.34375,0.0
1686009814.6051633,-36.1328125,-56.640625,-58.59375,-35.15625,0.0
1686009814.6090672,-26.3671875,-60.546875,-52.734375,-19.04296875,0.0
1686009814.612971,-15.625,-60.05859375,-48.33984375,-5.37109375,0.0
1686009814.616875,-27.34375,-57.12890625,-40.52734375,-13.671875,0.0
1686009814.6207788,-33.203125,-55.6640625,-36.62109375,-20.99609375,0.0
1686009814.6246827,-24.4140625,-55.6640625,-46.38671875,-24.4140625,0.0
1686009814.6285865,-16.6015625,-57.12890625,-53.7109375,-16.11328125,0.0
1686009814.6325307,-15.13671875,-55.17578125,-45.41015625,-10.25390625,0.0
1686009814.6364346,-32.2265625,-59.5703125,-41.50390625,-24.4140625,0.0
1686009814.6403384,-32.71484375,-62.01171875,-51.26953125,-22.4609375,0.0
1686009814.6442423,-1.46484375,-54.6875,-55.6640625,6.8359375,0.0
1686009814.6481462,32.2265625,-52.24609375,-55.17578125,36.62109375,0.0
1686009814.65205,-11.23046875,-58.59375,-55.17578125,-4.39453125,0.0
1686009814.655954,-51.7578125,-67.87109375,-50.78125,-41.015625,0.0
1686009814.6598577,-32.2265625,-68.359375,-40.52734375,-27.83203125,0.0
1686009814.6637616,-32.2265625,-71.77734375,-45.41015625,-31.25,0.0
1686009814.6676655,-53.7109375,-75.68359375,-50.78125,-47.36328125,0.0
1686009814.6715693,-52.734375,-72.265625,-43.45703125,-43.45703125,0.0
1686009814.6754732,-46.875,-72.265625,-44.921875,-44.921875,0.0
1686009814.679416,-18.06640625,-67.3828125,-45.8984375,-22.94921875,0.0
1686009814.6833198,-9.765625,-64.453125,-44.921875,-16.11328125,0.0
1686009814.6872237,-24.90234375,-62.01171875,-43.45703125,-24.90234375,0.0
1686009814.6911275,-24.90234375,-57.6171875,-43.9453125,-5.859375,0.0
1686009814.6950314,-7.32421875,-62.01171875,-46.38671875,12.20703125,0.0
1686009814.6989353,0.0,-68.359375,-51.26953125,10.7421875,0.0
1686009814.7028391,-25.390625,-67.87109375,-63.4765625,-9.27734375,0.0
1686009814.706743,-29.296875,-60.546875,-57.6171875,-15.13671875,0.0
1686009814.7106469,-12.20703125,-58.59375,-47.36328125,-3.90625,0.0
1686009814.7145507,-2.44140625,-60.546875,-49.31640625,8.30078125,0.0
1686009814.7184546,-23.4375,-56.640625,-45.41015625,-12.20703125,0.0
1686009814.7223585,-34.1796875,-59.08203125,-43.9453125,-19.04296875,0.0
1686009814.7263184,-20.99609375,-62.01171875,-43.9453125,-7.32421875,0.0
1686009814.7302222,-0.48828125,-51.7578125,-39.55078125,8.7890625,0.0
1686009814.734126,-16.6015625,-55.6640625,-43.9453125,4.39453125,0.0
1686009814.73803,-33.69140625,-61.5234375,-46.38671875,-16.11328125,0.0
1686009814.7419338,-23.92578125,-56.640625,-44.43359375,-12.6953125,0.0
1686009814.7458377,-11.23046875,-56.640625,-53.7109375,4.8828125,0.0
1686009814.7497416,-17.08984375,-57.6171875,-54.6875,-6.34765625,0.0
1686009814.7536454,-39.0625,-61.5234375,-51.26953125,-37.109375,0.0
1686009814.7575493,-29.78515625,-59.08203125,-49.8046875,-33.203125,0.0
1686009814.7614532,-4.39453125,-49.8046875,-39.55078125,-2.44140625,0.0
1686009814.765357,-7.32421875,-54.6875,-41.015625,-9.765625,0.0
1686009814.769261,-35.15625,-53.22265625,-44.921875,-34.66796875,0.0
1686009814.7732186,-30.76171875,-47.36328125,-41.50390625,-24.90234375,0.0
1686009814.7771223,-7.32421875,-50.29296875,-44.43359375,-12.6953125,0.0
1686009814.7810261,0.9765625,-52.734375,-44.43359375,-5.37109375,0.0
1686009814.78493,-21.484375,-54.19921875,-46.38671875,-16.6015625,0.0
1686009814.7888339,-30.2734375,-54.6875,-49.8046875,-27.83203125,0.0
1686009814.7927377,-27.34375,-63.4765625,-45.41015625,-26.3671875,0.0
1686009814.7966416,-6.34765625,-62.01171875,-40.52734375,-13.18359375,0.0
1686009814.8005455,-9.27734375,-54.19921875,-36.62109375,-14.16015625,0.0
1686009814.8044493,-31.73828125,-60.546875,-44.921875,-36.1328125,0.0
1686009814.8083532,-31.25,-70.80078125,-54.19921875,-36.62109375,0.0
1686009814.812257,-20.5078125,-69.82421875,-56.15234375,-23.4375,0.0
1686009814.816161,-22.94921875,-62.98828125,-59.08203125,-22.4609375,0.0
1686009814.820116,-32.71484375,-62.5,-55.17578125,-35.64453125,0.0
1686009814.82402,-29.296875,-62.98828125,-54.19921875,-28.3203125,0.0
1686009814.8279238,-15.625,-60.546875,-55.6640625,-19.04296875,0.0
1686009814.8318276,-6.34765625,-62.01171875,-55.17578125,-14.6484375,0.0
1686009814.8357315,-19.04296875,-54.6875,-48.828125,-22.4609375,0.0
1686009814.8396354,-14.16015625,-48.828125,-41.9921875,-18.06640625,0.0
1686009814.8435392,-14.16015625,-61.03515625,-48.828125,-16.6015625,0.0
1686009814.847443,-14.6484375,-63.96484375,-54.6875,-14.16015625,0.0
1686009814.851347,-26.3671875,-61.5234375,-57.6171875,-22.4609375,0.0
1686009814.8552508,-40.0390625,-61.03515625,-59.08203125,-28.80859375,0.0
1686009814.8591547,-26.85546875,-57.12890625,-52.734375,-11.71875,0.0
1686009814.8630586,-8.7890625,-62.01171875,-53.7109375,-1.953125,0.0
1686009814.8670108,-17.578125,-64.453125,-52.24609375,-4.8828125,0.0
1686009814.8709147,-30.76171875,-52.24609375,-44.43359375,-9.27734375,0.0
1686009814.8748186,-28.3203125,-56.15234375,-53.22265625,-14.6484375,0.0
1686009814.8787224,-17.578125,-65.4296875,-58.59375,-3.41796875,0.0
1686009814.8826263,-14.16015625,-62.5,-54.19921875,0.9765625,0.0
1686009814.8865302,-30.76171875,-62.5,-54.19921875,-16.6015625,0.0
1686009814.890434,-34.66796875,-60.546875,-53.22265625,-20.01953125,0.0
1686009814.894338,-18.5546875,-54.19921875,-52.24609375,-13.18359375,0.0
1686009814.8982418,-8.7890625,-53.7109375,-56.15234375,-9.765625,0.0
1686009814.9021456,-30.76171875,-51.26953125,-58.10546875,-32.2265625,0.0
1686009814.9060495,-32.71484375,-51.26953125,-56.640625,-35.15625,0.0
1686009814.9099534,-23.4375,-53.22265625,-59.08203125,-26.85546875,0.0
1686009814.9139032,-12.20703125,-51.26953125,-52.24609375,-12.6953125,0.0
1686009814.917807,-19.04296875,-49.31640625,-44.921875,-20.99609375,0.0
1686009814.921711,-39.55078125,-52.24609375,-49.8046875,-43.9453125,0.0
1686009814.9256148,-33.203125,-56.15234375,-57.6171875,-30.76171875,0.0
1686009814.9295187,-11.23046875,-58.59375,-61.5234375,-11.71875,0.0
1686009814.9334226,-14.6484375,-60.05859375,-58.59375,-12.6953125,0.0
1686009814.9373264,-36.1328125,-62.01171875,-62.01171875,-39.55078125,0.0
1686009814.9412303,-32.2265625,-63.4765625,-61.5234375,-39.55078125,0.0
1686009814.9451342,-16.11328125,-58.10546875,-49.31640625,-18.5546875,0.0
1686009814.949038,-20.99609375,-54.6875,-48.828125,-17.08984375,0.0
1686009814.952942,-44.43359375,-55.17578125,-48.828125,-28.80859375,0.0
1686009814.9568458,-40.52734375,-58.59375,-48.33984375,-33.203125,0.0
1686009814.9607935,-17.578125,-59.08203125,-51.7578125,-19.04296875,0.0
1686009814.9646974,-9.765625,-55.6640625,-48.33984375,-8.30078125,0.0
1686009814.9686012,-34.66796875,-58.10546875,-53.22265625,-31.25,0.0
1686009814.972505,-40.52734375,-58.10546875,-51.26953125,-28.80859375,0.0
1686009814.976409,-35.15625,-53.7109375,-50.78125,-14.16015625,0.0
1686009814.9803128,-21.484375,-58.59375,-52.24609375,-11.23046875,0.0
1686009814.9842167,-20.5078125,-60.05859375,-49.8046875,-7.8125,0.0
1686009814.9881206,-37.59765625,-56.640625,-45.8984375,-12.6953125,0.0
1686009814.9920244,-36.62109375,-54.6875,-42.48046875,-12.20703125,0.0
1686009814.9959283,-20.5078125,-57.6171875,-42.96875,2.9296875,0.0
1686009814.9998322,-19.53125,-62.5,-42.48046875,-1.953125,0.0
1686009815.003736,-37.109375,-52.734375,-49.8046875,-22.4609375,0.0
1686009815.007682,-33.69140625,-44.921875,-48.828125,-14.16015625,0.0
1686009815.011586,-12.6953125,-46.875,-47.36328125,-0.48828125,0.0
1686009815.0154898,-0.48828125,-50.29296875,-50.29296875,1.953125,0.0
1686009815.0193937,-18.06640625,-53.22265625,-49.8046875,-26.3671875,0.0
1686009815.0232975,-32.2265625,-58.10546875,-46.875,-39.55078125,0.0
1686009815.0272014,-21.97265625,-59.5703125,-41.50390625,-21.97265625,0.0
1686009815.0311053,-15.625,-58.10546875,-40.0390625,-17.08984375,0.0
1686009815.0350091,-39.0625,-57.6171875,-39.0625,-39.0625,0.0
1686009815.038913,-36.62109375,-50.29296875,-34.66796875,-39.0625,0.0
1686009815.0428169,-23.92578125,-50.29296875,-35.64453125,-19.53125,0.0
1686009815.0467207,-16.6015625,-53.7109375,-44.921875,-7.8125,0.0
1686009815.0506246,-31.73828125,-58.10546875,-61.03515625,-29.78515625,0.0
1686009815.0545678,-45.8984375,-61.03515625,-57.6171875,-44.43359375,0.0
1686009815.0584717,-29.296875,-62.98828125,-53.22265625,-22.4609375,0.0
1686009815.0623755,-12.6953125,-62.98828125,-59.5703125,-17.08984375,0.0
1686009815.0662794,-20.01953125,-64.453125,-56.640625,-27.34375,0.0
1686009815.0701833,-39.55078125,-60.546875,-48.828125,-31.73828125,0.0
1686009815.0740874,-33.69140625,-61.5234375,-53.22265625,-21.484375,0.0
1686009815.0779912,-20.99609375,-64.94140625,-57.6171875,-20.5078125,0.0
1686009815.081895,-23.92578125,-67.87109375,-55.6640625,-24.90234375,0.0
1686009815.085799,-42.96875,-71.2890625,-59.5703125,-42.48046875,0.0
1686009815.0897028,-37.59765625,-65.4296875,-60.05859375,-40.0390625,0.0
1686009815.0936067,-25.390625,-58.10546875,-55.6640625,-25.390625,0.0
1686009815.0975106,-12.6953125,-62.98828125,-54.19921875,-17.578125,0.0
1686009815.1014724,-20.5078125,-61.5234375,-56.640625,-23.4375,0.0
1686009815.1053762,-36.1328125,-57.12890625,-56.640625,-36.1328125,0.0
1686009815.10928,-22.94921875,-58.10546875,-51.7578125,-30.76171875,0.0
1686009815.113184,-0.48828125,-61.5234375,-47.8515625,-13.671875,0.0
1686009815.1170878,-12.6953125,-67.3828125,-41.9921875,-22.94921875,0.0
1686009815.1209917,-31.73828125,-69.3359375,-37.59765625,-31.73828125,0.0
1686009815.1248956,-20.99609375,-65.4296875,-45.8984375,-29.78515625,0.0
1686009815.1287994,-10.25390625,-63.96484375,-48.828125,-28.3203125,0.0
1686009815.1327033,-16.6015625,-68.359375,-45.8984375,-18.5546875,0.0
1686009815.1366072,-37.109375,-72.265625,-51.26953125,-20.99609375,0.0
1686009815.140511,-34.66796875,-68.84765625,-48.33984375,-24.90234375,0.0
1686009815.144415,-20.99609375,-70.80078125,-41.015625,-11.23046875,0.0
1686009815.1483738,-9.27734375,-65.4296875,-40.52734375,-0.9765625,0.0
1686009815.1522777,-26.85546875,-65.4296875,-42.48046875,-20.5078125,0.0
1686009815.1561816,-41.015625,-71.2890625,-40.52734375,-23.4375,0.0
1686009815.1600854,-26.85546875,-62.01171875,-41.015625,-13.18359375,0.0
1686009815.1639893,-8.30078125,-48.828125,-38.57421875,-2.9296875,0.0
1686009815.1678932,-22.4609375,-52.24609375,-38.0859375,-10.25390625,0.0
1686009815.171797,-42.48046875,-60.05859375,-46.38671875,-27.83203125,0.0
1686009815.175701,-37.109375,-65.4296875,-46.38671875,-27.34375,0.0
1686009815.179605,-13.671875,-65.4296875,-49.31640625,-17.08984375,0.0
1686009815.1835089,-23.4375,-61.5234375,-52.24609375,-17.578125,0.0
1686009815.1874127,-53.7109375,-64.453125,-50.78125,-31.73828125,0.0
1686009815.1913166,-41.50390625,-62.98828125,-49.31640625,-29.78515625,0.0
1686009815.1952736,-12.20703125,-57.6171875,-47.36328125,-12.6953125,0.0
1686009815.1991775,-13.671875,-57.6171875,-53.7109375,-15.13671875,0.0
1686009815.2030814,-38.57421875,-58.59375,-50.78125,-35.64453125,0.0
1686009815.2069852,-36.62109375,-60.05859375,-43.9453125,-41.50390625,0.0
1686009815.210889,-22.4609375,-62.98828125,-49.8046875,-34.1796875,0.0
1686009815.214793,-14.6484375,-61.5234375,-54.19921875,-20.5078125,0.0
1686009815.2186968,-40.0390625,-59.08203125,-62.5,-41.015625,0.0
1686009815.2226007,-40.52734375,-60.546875,-67.3828125,-42.48046875,0.0
1686009815.2265046,-18.5546875,-60.05859375,-61.03515625,-18.5546875,0.0
1686009815.2304084,-10.7421875,-54.6875,-49.8046875,-4.8828125,0.0
1686009815.2343123,-17.578125,-55.17578125,-51.7578125,-10.7421875,0.0
1686009815.2382162,-26.85546875,-57.12890625,-58.10546875,-34.1796875,0.0
1686009815.242169,-24.90234375,-54.19921875,-52.24609375,-36.62109375,0.0
1686009815.2460728,-9.765625,-58.59375,-49.8046875,-31.73828125,0.0
1686009815.2499766,-3.90625,-63.4765625,-49.31640625,-34.66796875,0.0
1686009815.2538805,-23.4375,-63.96484375,-49.8046875,-41.50390625,0.0
1686009815.2577844,-36.1328125,-65.4296875,-60.546875,-35.64453125,0.0
1686009815.2616882,-26.3671875,-63.4765625,-59.5703125,-13.18359375,0.0
1686009815.265592,-23.92578125,-63.4765625,-51.26953125,-1.46484375,0.0
1686009815.269496,-44.921875,-62.01171875,-46.38671875,-10.25390625,0.0
1686009815.2733998,-52.24609375,-59.5703125,-54.19921875,-15.13671875,0.0
1686009815.2773037,-46.875,-61.03515625,-53.22265625,-12.6953125,0.0
1686009815.2812076,-26.85546875,-61.5234375,-45.41015625,-1.953125,0.0
1686009815.2851114,-34.1796875,-59.5703125,-49.8046875,-12.6953125,0.0
1686009815.289062,-41.9921875,-57.6171875,-49.8046875,-22.4609375,0.0
1686009815.292966,-29.78515625,-63.96484375,-48.33984375,-10.7421875,0.0
1686009815.2968698,-15.13671875,-70.80078125,-52.24609375,4.8828125,0.0
1686009815.3007736,-23.4375,-68.359375,-53.7109375,-1.46484375,0.0
1686009815.3046775,-34.1796875,-62.01171875,-56.640625,-17.08984375,0.0
1686009815.3085814,-26.3671875,-59.5703125,-56.15234375,-16.11328125,0.0
1686009815.3124852,-4.39453125,-53.7109375,-51.7578125,-1.46484375,0.0
1686009815.316389,3.41796875,-52.734375,-41.50390625,5.859375,0.0
1686009815.320293,-28.3203125,-62.01171875,-44.921875,-20.99609375,0.0
1686009815.3241968,-32.2265625,-62.5,-54.19921875,-34.66796875,0.0
1686009815.3281007,-13.671875,-61.5234375,-53.7109375,-31.73828125,0.0
1686009815.3320045,-10.25390625,-68.84765625,-54.19921875,-24.90234375,0.0
1686009815.3359523,-33.69140625,-72.75390625,-54.6875,-39.55078125,0.0
1686009815.3398561,-36.1328125,-64.94140625,-52.24609375,-40.0390625,0.0
1686009815.34376,-20.5078125,-61.03515625,-52.734375,-18.06640625,0.0
1686009815.3476639,1.46484375,-57.6171875,-49.31640625,-2.44140625,0.0
1686009815.351568,-12.20703125,-48.828125,-41.015625,-10.25390625,0.0
1686009815.3554718,-34.1796875,-49.31640625,-48.828125,-22.94921875,0.0
1686009815.3593757,-24.4140625,-56.15234375,-58.59375,-8.30078125,0.0
1686009815.3632796,-5.859375,-63.4765625,-52.24609375,5.859375,0.0
1686009815.3671834,-17.578125,-69.3359375,-53.7109375,-16.6015625,0.0
1686009815.3710873,-29.296875,-60.546875,-52.24609375,-36.1328125,0.0
1686009815.3749912,-22.94921875,-51.7578125,-45.8984375,-30.2734375,0.0
1686009815.378895,-15.625,-54.6875,-49.8046875,-21.484375,0.0
1686009815.3828404,-12.20703125,-56.15234375,-55.6640625,-16.6015625,0.0
1686009815.3867443,-38.0859375,-57.12890625,-56.15234375,-33.203125,0.0
1686009815.3906481,-43.9453125,-60.546875,-58.59375,-32.2265625,0.0
1686009815.394552,-22.94921875,-62.98828125,-62.01171875,-13.18359375,0.0
1686009815.3984559,-12.6953125,-62.98828125,-58.59375,-10.7421875,0.0
1686009815.4023597,-36.1328125,-68.359375,-59.5703125,-35.15625,0.0
1686009815.4062636,-41.015625,-74.70703125,-67.87109375,-31.73828125,0.0
1686009815.4101675,-28.3203125,-66.40625,-65.4296875,-21.484375,0.0
1686009815.4140713,-13.671875,-60.546875,-57.6171875,-20.5078125,0.0
1686009815.4179752,-16.6015625,-59.08203125,-63.4765625,-24.4140625,0.0
1686009815.421879,-28.80859375,-52.734375,-56.15234375,-27.34375,0.0
1686009815.425783,-21.97265625,-55.6640625,-53.22265625,-27.34375,0.0
1686009815.4297268,-9.27734375,-63.96484375,-59.5703125,-22.4609375,0.0
1686009815.4336307,-19.53125,-67.3828125,-57.12890625,-30.76171875,0.0
1686009815.4375346,-46.875,-65.4296875,-57.6171875,-43.45703125,0.0
1686009815.4414384,-38.0859375,-65.91796875,-56.15234375,-33.69140625,0.0
1686009815.4453423,-22.94921875,-66.89453125,-59.5703125,-22.94921875,0.0
1686009815.4492462,-11.71875,-58.10546875,-66.89453125,-14.16015625,0.0
1686009815.45315,-23.4375,-52.734375,-62.98828125,-33.203125,0.0
1686009815.457054,-35.64453125,-55.6640625,-60.546875,-43.45703125,0.0
1686009815.4609578,-14.6484375,-55.6640625,-60.05859375,-20.5078125,0.0
1686009815.4648616,1.953125,-60.05859375,-62.98828125,-7.8125,0.0
1686009815.4687655,-27.34375,-69.3359375,-66.89453125,-36.62109375,0.0
1686009815.4726694,-37.109375,-60.05859375,-58.10546875,-46.875,0.0
1686009815.4766302,-23.4375,-58.59375,-52.734375,-32.71484375,0.0
1686009815.480534,-1.46484375,-65.91796875,-58.10546875,-17.08984375,0.0
1686009815.484438,-8.30078125,-59.08203125,-54.6875,-17.08984375,0.0
1686009815.4883418,-22.94921875,-52.24609375,-45.8984375,-26.3671875,0.0
1686009815.4922457,-17.08984375,-55.6640625,-48.828125,-21.97265625,0.0
1686009815.4961495,2.44140625,-55.17578125,-56.640625,0.0,0.0
1686009815.5000534,1.953125,-62.98828125,-60.05859375,1.953125,0.0
1686009815.5039573,-37.109375,-71.77734375,-56.15234375,-26.3671875,0.0
1686009815.5078611,-42.96875,-66.40625,-56.15234375,-26.3671875,0.0
1686009815.511765,-15.13671875,-59.08203125,-54.6875,-5.859375,0.0
1686009815.5156689,-2.9296875,-60.05859375,-52.734375,0.9765625,0.0
1686009815.5195727,-21.97265625,-61.5234375,-51.26953125,-10.7421875,0.0
1686009815.523531,-23.4375,-62.98828125,-44.43359375,-14.6484375,0.0
1686009815.5274348,-8.30078125,-60.05859375,-41.015625,-4.8828125,0.0
1686009815.5313387,-3.90625,-56.15234375,-43.9453125,-4.39453125,0.0
1686009815.5352426,-22.94921875,-54.6875,-45.8984375,-25.87890625,0.0
1686009815.5391464,-31.25,-57.6171875,-42.96875,-33.69140625,0.0
1686009815.5430503,-15.625,-59.5703125,-45.8984375,-19.04296875,0.0
1686009815.5469544,-6.34765625,-54.6875,-45.8984375,-0.48828125,0.0
1686009815.5508583,-22.94921875,-55.6640625,-50.29296875,-14.16015625,0.0
1686009815.5547621,-39.0625,-55.17578125,-53.22265625,-28.80859375,0.0
1686009815.558666,-29.296875,-54.19921875,-40.52734375,-19.53125,0.0
1686009815.5625699,-7.32421875,-46.875,-33.69140625,-6.8359375,0.0
1686009815.5664737,-6.8359375,-42.96875,-45.41015625,-3.90625,0.0
1686009815.5704293,-24.4140625,-51.7578125,-49.8046875,-22.94921875,0.0
1686009815.5743332,-22.4609375,-53.7109375,-39.55078125,-28.80859375,0.0
1686009815.578237,-14.6484375,-53.22265625,-41.9921875,-11.23046875,0.0
1686009815.582141,-7.32421875,-56.15234375,-41.9921875,4.39453125,0.0
1686009815.5860448,-15.13671875,-48.828125,-37.59765625,-10.25390625,0.0
1686009815.5899487,-22.4609375,-48.33984375,-42.48046875,-22.4609375,0.0
1686009815.5938525,-18.5546875,-60.05859375,-40.52734375,-13.18359375,0.0
1686009815.5977564,-10.25390625,-69.3359375,-40.0390625,0.0,0.0
1686009815.6016603,-21.484375,-68.359375,-40.52734375,0.0,0.0
1686009815.6055644,-34.66796875,-64.453125,-41.9921875,-16.6015625,0.0
1686009815.6094682,-19.53125,-53.7109375,-42.48046875,-10.7421875,0.0
1686009815.613372,5.859375,-48.828125,-39.0625,8.7890625,0.0
1686009815.617325,-0.9765625,-55.6640625,-43.9453125,3.41796875,0.0
1686009815.621229,-25.390625,-56.15234375,-46.875,-13.18359375,0.0
1686009815.6251328,-20.99609375,-46.875,-43.45703125,-6.8359375,0.0
1686009815.6290367,-5.859375,-51.7578125,-43.45703125,8.7890625,0.0
1686009815.6329405,-3.41796875,-62.98828125,-43.45703125,2.44140625,0.0
1686009815.6368444,-23.92578125,-64.94140625,-47.8515625,-14.16015625,0.0
1686009815.6407483,-30.76171875,-58.10546875,-48.828125,-15.625,0.0
1686009815.6446524,-17.578125,-54.6875,-48.33984375,-8.30078125,0.0
1686009815.6485562,-2.9296875,-58.10546875,-53.22265625,1.953125,0.0
1686009815.65246,-20.01953125,-55.6640625,-54.6875,-18.5546875,0.0
1686009815.656364,-32.2265625,-60.05859375,-56.640625,-26.3671875,0.0
1686009815.6602678,-24.90234375,-61.03515625,-62.01171875,-13.671875,0.0
1686009815.6642184,-8.7890625,-54.6875,-55.6640625,-6.34765625,0.0
1686009815.6681223,-9.27734375,-54.6875,-53.22265625,-5.859375,0.0
1686009815.6720262,-28.80859375,-57.6171875,-58.10546875,-23.92578125,0.0
1686009815.67593,-29.296875,-63.96484375,-62.01171875,-31.25,0.0
1686009815.679834,-16.6015625,-69.3359375,-56.640625,-12.20703125,0.0
1686009815.6837378,-18.06640625,-72.265625,-54.19921875,-14.16015625,0.0
1686009815.6876416,-36.1328125,-66.40625,-60.05859375,-26.85546875,0.0
1686009815.6915455,-36.1328125,-61.5234375,-61.03515625,-17.578125,0.0
1686009815.6954494,-22.4609375,-58.59375,-55.6640625,-14.6484375,0.0
1686009815.6993532,-20.5078125,-54.19921875,-52.734375,-22.94921875,0.0
1686009815.703257,-39.0625,-53.22265625,-49.8046875,-30.76171875,0.0
1686009815.7071612,-37.59765625,-60.05859375,-44.921875,-24.90234375,0.0
1686009815.7111096,-27.34375,-65.4296875,-50.78125,-27.34375,0.0
1686009815.7150135,-20.5078125,-64.453125,-60.546875,-24.90234375,0.0
1686009815.7189174,-32.2265625,-67.87109375,-56.640625,-29.78515625,0.0
1686009815.7228212,-45.41015625,-68.84765625,-57.6171875,-35.64453125,0.0
1686009815.726725,-37.109375,-60.05859375,-60.05859375,-33.203125,0.0
1686009815.7306292,-18.06640625,-58.10546875,-57.6171875,-19.53125,0.0
1686009815.734533,-27.34375,-60.546875,-58.59375,-20.01953125,0.0
1686009815.738437,-40.52734375,-57.6171875,-52.734375,-35.15625,0.0
1686009815.7423408,-32.2265625,-51.7578125,-49.31640625,-34.1796875,0.0
1686009815.7462447,-13.18359375,-51.26953125,-51.26953125,-13.671875,0.0
1686009815.7501485,-8.30078125,-53.22265625,-51.7578125,-10.7421875,0.0
1686009815.7540524,-28.80859375,-55.6640625,-49.8046875,-31.73828125,0.0
1686009815.7579978,-27.34375,-57.6171875,-46.38671875,-31.73828125,0.0
1686009815.7619016,-7.32421875,-61.03515625,-49.31640625,-10.7421875,0.0
1686009815.7658055,0.9765625,-63.96484375,-57.12890625,-2.44140625,0.0
1686009815.7697096,-16.11328125,-63.96484375,-52.24609375,-20.5078125,0.0
1686009815.7736135,-25.390625,-60.546875,-45.8984375,-25.87890625,0.0
1686009815.7775173,-20.01953125,-62.5,-48.828125,-17.08984375,0.0
1686009815.7814212,2.9296875,-58.59375,-44.921875,2.9296875,0.0
1686009815.785325,-13.671875,-49.31640625,-44.921875,-4.39453125,0.0
1686009815.789229,-39.0625,-53.22265625,-49.8046875,-24.4140625,0.0
1686009815.7931328,-31.25,-57.12890625,-45.41015625,-22.4609375,0.0
1686009815.7970366,-14.16015625,-55.6640625,-47.8515625,-12.20703125,0.0
1686009815.8009405,-24.4140625,-54.6875,-59.5703125,-19.04296875,0.0
1686009815.8048842,-41.9921875,-62.01171875,-55.6640625,-38.0859375,0.0
1686009815.808788,-33.69140625,-63.4765625,-55.17578125,-37.109375,0.0
1686009815.812692,-16.6015625,-61.03515625,-61.03515625,-18.5546875,0.0
1686009815.8165958,-9.765625,-61.03515625,-63.96484375,-19.04296875,0.0
1686009815.8204997,-29.296875,-51.26953125,-59.08203125,-42.96875,0.0
1686009815.8244035,-27.83203125,-44.43359375,-48.33984375,-27.83203125,0.0
1686009815.8283074,-9.765625,-49.31640625,-44.921875,-6.8359375,0.0
1686009815.8322113,-8.7890625,-55.6640625,-51.7578125,-14.16015625,0.0
1686009815.8361154,-27.34375,-60.05859375,-53.7109375,-28.3203125,0.0
1686009815.8400192,-25.87890625,-63.4765625,-48.828125,-26.85546875,0.0
1686009815.843923,-21.484375,-59.5703125,-58.59375,-23.4375,0.0
1686009815.847827,-6.34765625,-56.15234375,-57.6171875,-11.71875,0.0
1686009815.8518102,-10.25390625,-60.546875,-49.31640625,-12.20703125,0.0
1686009815.8557143,-33.203125,-61.03515625,-47.8515625,-28.80859375,0.0
1686009815.8596182,-27.34375,-55.17578125,-41.015625,-21.484375,0.0
1686009815.863522,-7.8125,-59.08203125,-45.8984375,-8.7890625,0.0
1686009815.867426,-18.06640625,-65.4296875,-55.17578125,-22.4609375,0.0
1686009815.8713298,-44.43359375,-67.3828125,-57.6171875,-39.0625,0.0
1686009815.8752337,-41.50390625,-62.5,-58.10546875,-40.0390625,0.0
1686009815.8791375,-23.92578125,-57.12890625,-58.59375,-26.3671875,0.0
1686009815.8830414,-15.625,-57.6171875,-56.640625,0.48828125,0.0
1686009815.8869452,-36.62109375,-70.3125,-55.17578125,-10.7421875,0.0
1686009815.890849,-37.109375,-67.3828125,-59.08203125,-31.25,0.0
1686009815.894753,-17.08984375,-50.29296875,-53.7109375,-20.5078125,0.0
1686009815.8987124,-2.44140625,-42.48046875,-43.9453125,-9.27734375,0.0
1686009815.9026163,-17.08984375,-46.38671875,-44.921875,-29.78515625,0.0
1686009815.9065201,-30.76171875,-52.24609375,-46.38671875,-41.50390625,0.0
1686009815.910424,-23.4375,-57.6171875,-47.8515625,-39.55078125,0.0
1686009815.914328,-2.9296875,-52.734375,-53.7109375,-28.3203125,0.0
1686009815.918232,-7.32421875,-52.24609375,-54.19921875,-25.87890625,0.0
1686009815.9221358,-31.25,-56.15234375,-54.19921875,-29.296875,0.0
1686009815.9260397,-30.76171875,-59.5703125,-58.59375,-20.5078125,0.0
1686009815.9299436,-12.20703125,-65.4296875,-53.7109375,-9.27734375,0.0
1686009815.9338474,-16.6015625,-62.98828125,-50.78125,-21.484375,0.0
1686009815.9377513,-34.66796875,-52.734375,-48.33984375,-36.62109375,0.0
1686009815.9416552,-28.3203125,-50.78125,-50.78125,-38.0859375,0.0
1686009815.9456117,-10.7421875,-51.7578125,-59.08203125,-21.484375,0.0
1686009815.9495156,-14.6484375,-54.6875,-57.12890625,-13.18359375,0.0
1686009815.9534197,-41.50390625,-66.40625,-51.26953125,-42.48046875,0.0
1686009815.9573236,-38.0859375,-65.91796875,-50.29296875,-39.0625,0.0
1686009815.9612274,-23.92578125,-62.01171875,-52.734375,-22.4609375,0.0
1686009815.9651313,-15.625,-63.96484375,-56.15234375,-16.6015625,0.0
1686009815.9690351,-31.25,-63.4765625,-54.6875,-30.76171875,0.0
1686009815.972939,-40.52734375,-59.5703125,-49.8046875,-40.52734375,0.0
1686009815.9768429,-24.90234375,-53.7109375,-47.36328125,-29.78515625,0.0
1686009815.9807467,-18.06640625,-55.6640625,-50.29296875,-29.296875,0.0
1686009815.9846506,-29.78515625,-58.10546875,-48.828125,-41.015625,0.0
1686009815.9885545,-42.96875,-57.6171875,-48.828125,-55.6640625,0.0
1686009815.9925086,-38.57421875,-56.640625,-52.24609375,-52.24609375,0.0
1686009815.9964125,-25.87890625,-51.7578125,-48.33984375,-37.109375,0.0
1686009816.0003164,-25.87890625,-51.7578125,-51.7578125,-33.69140625,0.0
1686009816.0042202,-45.41015625,-51.7578125,-53.7109375,-42.48046875,0.0
1686009816.0081244,-55.6640625,-58.10546875,-54.6875,-44.43359375,0.0
1686009816.0120282,-35.64453125,-57.6171875,-53.22265625,-27.83203125,0.0
1686009816.015932,-16.6015625,-55.17578125,-50.78125,-6.8359375,0.0
1686009816.019836,-41.50390625,-61.5234375,-59.08203125,-22.94921875,0.0
1686009816.0237398,-46.875,-66.40625,-62.5,-29.78515625,0.0
1686009816.0276437,-33.69140625,-63.96484375,-57.12890625,-29.296875,0.0
1686009816.0315475,-22.4609375,-58.10546875,-53.22265625,-17.578125,0.0
1686009816.0354514,-31.73828125,-58.59375,-56.15234375,-19.53125,0.0
1686009816.039403,-45.41015625,-60.546875,-58.59375,-39.0625,0.0
1686009816.0433068,-36.62109375,-56.640625,-54.6875,-34.1796875,0.0
1686009816.0472107,-24.4140625,-57.6171875,-47.8515625,-19.04296875,0.0
1686009816.0511146,-28.3203125,-58.59375,-49.31640625,-20.01953125,0.0
1686009816.0550184,-31.73828125,-52.24609375,-47.36328125,-18.5546875,0.0
1686009816.0589225,-30.76171875,-62.5,-55.17578125,-23.4375,0.0
1686009816.0628264,-20.99609375,-69.82421875,-63.4765625,-20.99609375,0.0
1686009816.0667303,-9.765625,-62.5,-63.96484375,-2.9296875,0.0
1686009816.0706341,-23.92578125,-57.12890625,-57.6171875,-24.90234375,0.0
1686009816.074538,-20.99609375,-57.12890625,-59.5703125,-33.69140625,0.0
1686009816.0784419,-2.9296875,-55.6640625,-55.17578125,-12.20703125,0.0
1686009816.0823457,11.23046875,-48.828125,-45.8984375,1.46484375,0.0
1686009816.0862951,-11.23046875,-50.78125,-50.78125,-13.18359375,0.0
1686009816.090199,-30.76171875,-56.15234375,-48.33984375,-11.71875,0.0
1686009816.0941029,-26.3671875,-57.12890625,-39.55078125,10.25390625,0.0
1686009816.0980067,-20.99609375,-66.40625,-45.8984375,22.4609375,0.0
1686009816.1019106,-36.62109375,-68.359375,-51.26953125,6.34765625,0.0
1686009816.1058145,-47.8515625,-65.4296875,-50.29296875,-9.765625,0.0
1686009816.1097183,-31.73828125,-62.5,-51.26953125,7.32421875,0.0
1686009816.1136224,-8.7890625,-61.5234375,-44.921875,22.4609375,0.0
1686009816.1175263,-14.16015625,-60.546875,-38.57421875,-0.9765625,0.0
1686009816.1214302,-24.4140625,-58.10546875,-41.9921875,-26.85546875,0.0
1686009816.125334,-24.90234375,-59.08203125,-48.33984375,-15.625,0.0
1686009816.129238,-19.04296875,-57.6171875,-50.78125,-2.9296875,0.0
1686009816.1331844,-10.7421875,-55.17578125,-52.734375,-3.41796875,0.0
1686009816.1370883,-34.66796875,-66.89453125,-53.7109375,-23.92578125,0.0
1686009816.1409922,-36.1328125,-64.453125,-55.17578125,-29.78515625,0.0
1686009816.144896,-18.06640625,-57.6171875,-56.640625,-21.97265625,0.0
1686009816.1488,-9.27734375,-57.12890625,-54.19921875,-11.23046875,0.0
1686009816.1527038,-25.390625,-59.5703125,-56.640625,-27.83203125,0.0
1686009816.1566076,-28.80859375,-62.98828125,-58.10546875,-34.1796875,0.0
1686009816.1605115,-15.625,-60.05859375,-51.7578125,-24.90234375,0.0
1686009816.1644154,-2.9296875,-60.05859375,-48.828125,-17.08984375,0.0
1686009816.1683192,-12.6953125,-62.98828125,-53.7109375,-22.4609375,0.0
1686009816.1722233,-24.4140625,-59.08203125,-52.24609375,-31.25,0.0
1686009816.1761272,-16.6015625,-54.6875,-48.33984375,-20.99609375,0.0
1686009816.1800709,-5.859375,-53.7109375,-53.22265625,-16.6015625,0.0
1686009816.1839747,-9.27734375,-55.17578125,-58.10546875,-20.5078125,0.0
1686009816.1878786,-25.87890625,-54.19921875,-59.08203125,-29.296875,0.0
1686009816.1917827,-34.1796875,-56.640625,-56.15234375,-30.2734375,0.0
1686009816.1956866,-19.04296875,-57.6171875,-47.36328125,-14.6484375,0.0
1686009816.1995904,3.90625,-60.546875,-54.19921875,-2.9296875,0.0
1686009816.2034943,-21.484375,-63.4765625,-64.94140625,-23.92578125,0.0
1686009816.2073982,-41.50390625,-59.08203125,-61.03515625,-30.2734375,0.0
1686009816.211302,-28.3203125,-59.5703125,-61.03515625,-6.8359375,0.0
1686009816.215206,-7.32421875,-59.08203125,-56.15234375,13.18359375,0.0
1686009816.2191098,-20.5078125,-56.15234375,-51.7578125,-16.11328125,0.0
1686009816.2230136,-38.57421875,-59.5703125,-54.6875,-41.9921875,0.0
1686009816.2269762,-27.34375,-57.12890625,-52.734375,-22.4609375,0.0
1686009816.23088,-6.34765625,-58.59375,-57.12890625,-9.27734375,0.0
1686009816.234784,-17.578125,-62.98828125,-60.05859375,-25.87890625,0.0
1686009816.2386878,-37.59765625,-62.01171875,-56.640625,-33.69140625,0.0
1686009816.2425916,-24.4140625,-64.94140625,-57.12890625,-19.04296875,0.0
1686009816.2464955,-6.8359375,-67.3828125,-60.05859375,-10.7421875,0.0
1686009816.2503994,-8.30078125,-62.98828125,-56.15234375,-16.6015625,0.0
1686009816.2543032,-26.85546875,-68.359375,-59.5703125,-37.59765625,0.0
1686009816.258207,-29.296875,-71.2890625,-54.6875,-31.73828125,0.0
1686009816.2621112,-7.32421875,-65.4296875,-44.43359375,-2.44140625,0.0
1686009816.266015,7.8125,-54.6875,-43.45703125,7.8125,0.0
1686009816.269919,-10.7421875,-47.8515625,-44.921875,-12.6953125,0.0
1686009816.2738779,-15.13671875,-50.78125,-46.875,-12.20703125,0.0
1686009816.2777817,-7.8125,-45.8984375,-41.50390625,-3.90625,0.0
1686009816.2816856,6.8359375,-42.96875,-41.015625,-4.39453125,0.0
1686009816.2855895,-1.46484375,-47.8515625,-49.8046875,-15.625,0.0
1686009816.2894933,-23.92578125,-49.31640625,-53.7109375,-32.71484375,0.0
1686009816.2933972,-19.04296875,-53.22265625,-55.6640625,-26.85546875,0.0
1686009816.297301,-0.48828125,-54.19921875,-54.19921875,-4.39453125,0.0
1686009816.301205,-12.20703125,-56.15234375,-51.7578125,-10.7421875,0.0
1686009816.305109,-24.4140625,-62.01171875,-47.8515625,-18.5546875,0.0
1686009816.309013,-9.765625,-51.26953125,-39.0625,-2.44140625,0.0
1686009816.3129168,-5.37109375,-43.45703125,-41.50390625,-1.953125,0.0
1686009816.3168206,-6.34765625,-46.38671875,-48.828125,-8.7890625,0.0
1686009816.3207772,-19.04296875,-48.828125,-42.48046875,-21.484375,0.0
1686009816.324681,-21.484375,-51.7578125,-43.45703125,-27.83203125,0.0
1686009816.328585,-17.578125,-54.19921875,-48.33984375,-22.94921875,0.0
1686009816.3324888,-15.625,-64.453125,-49.8046875,-16.11328125,0.0
1686009816.3363929,-30.76171875,-64.453125,-45.8984375,-21.97265625,0.0
1686009816.3402967,-39.55078125,-62.98828125,-50.78125,-36.62109375,0.0
1686009816.3442006,-26.85546875,-62.98828125,-53.7109375,-32.71484375,0.0
1686009816.3481045,-24.4140625,-60.05859375,-47.36328125,-18.5546875,0.0
1686009816.3520083,-27.34375,-52.24609375,-42.48046875,-21.97265625,0.0
1686009816.3559122,-32.71484375,-50.78125,-43.9453125,-39.55078125,0.0
1686009816.359816,-33.69140625,-60.546875,-48.828125,-44.43359375,0.0
1686009816.36372,-19.04296875,-59.5703125,-45.8984375,-24.90234375,0.0
1686009816.3676736,-23.92578125,-60.546875,-44.43359375,-19.04296875,0.0
1686009816.3715775,-53.7109375,-64.94140625,-51.26953125,-43.9453125,0.0
1686009816.3754814,-49.31640625,-61.5234375,-47.8515625,-43.45703125,0.0
1686009816.3793852,-21.484375,-57.6171875,-50.78125,-24.4140625,0.0
1686009816.3832893,-20.5078125,-55.6640625,-50.78125,-22.94921875,0.0
1686009816.3871932,-35.64453125,-50.29296875,-43.9453125,-32.71484375,0.0
1686009816.391097,-25.87890625,-46.38671875,-48.828125,-26.85546875,0.0
1686009816.395001,-10.7421875,-45.41015625,-54.6875,-11.23046875,0.0
1686009816.3989048,-5.859375,-49.8046875,-56.640625,-6.8359375,0.0
1686009816.4028087,-20.99609375,-49.8046875,-51.7578125,-16.6015625,0.0
1686009816.4067125,-32.2265625,-54.6875,-45.8984375,-29.78515625,0.0
1686009816.4106164,-20.01953125,-54.6875,-42.48046875,-23.92578125,0.0
1686009816.4145703,0.0,-48.828125,-43.45703125,-4.8828125,0.0
1686009816.4184742,-16.11328125,-50.29296875,-44.921875,-20.99609375,0.0
1686009816.422378,-36.1328125,-49.8046875,-45.41015625,-41.015625,0.0
1686009816.426282,-27.34375,-49.8046875,-48.33984375,-21.97265625,0.0
1686009816.430186,-12.6953125,-50.29296875,-54.19921875,-9.27734375,0.0
1686009816.43409,-9.765625,-48.828125,-68.359375,-13.18359375,0.0
1686009816.4379938,-28.3203125,-43.45703125,-62.5,-17.08984375,0.0
1686009816.4418976,-23.4375,-43.9453125,-52.24609375,-15.625,0.0
1686009816.4458015,-6.34765625,-44.43359375,-48.828125,-13.18359375,0.0
1686009816.4497054,-2.9296875,-48.33984375,-50.29296875,-16.11328125,0.0
1686009816.4536092,-29.78515625,-53.22265625,-55.17578125,-39.55078125,0.0
1686009816.457513,-39.0625,-51.7578125,-58.59375,-37.109375,0.0
1686009816.4614642,-24.90234375,-55.17578125,-53.22265625,-20.5078125,0.0
1686009816.465368,-5.859375,-53.22265625,-47.8515625,1.953125,0.0
1686009816.469272,-13.671875,-49.8046875,-48.33984375,6.8359375,0.0
1686009816.4731758,-32.2265625,-51.26953125,-49.31640625,-9.27734375,0.0
1686009816.4770796,-19.53125,-54.6875,-48.828125,-14.16015625,0.0
1686009816.4809835,4.39453125,-54.6875,-40.0390625,0.48828125,0.0
1686009816.4848874,-2.9296875,-55.6640625,-39.55078125,2.44140625,0.0
1686009816.4887915,-27.34375,-51.26953125,-48.33984375,-21.484375,0.0
1686009816.4926953,-28.80859375,-42.96875,-47.36328125,-27.34375,0.0
1686009816.4965992,-6.34765625,-36.62109375,-42.96875,-2.44140625,0.0
1686009816.500503,0.48828125,-36.62109375,-50.29296875,4.8828125,0.0
1686009816.504407,-25.87890625,-42.48046875,-52.734375,-16.11328125,0.0
1686009816.5083535,-26.85546875,-45.8984375,-47.36328125,-28.80859375,0.0
1686009816.5122573,-10.7421875,-46.875,-53.22265625,-24.4140625,0.0
1686009816.5161612,-2.9296875,-51.7578125,-54.6875,-7.8125,0.0
1686009816.520065,-20.5078125,-54.6875,-48.828125,-17.578125,0.0
1686009816.523969,-32.71484375,-50.78125,-45.8984375,-27.34375,0.0
1686009816.527873,-33.203125,-52.24609375,-54.19921875,-23.92578125,0.0
1686009816.531777,-16.11328125,-49.8046875,-63.4765625,-13.671875,0.0
1686009816.5356808,-27.34375,-46.38671875,-62.98828125,-31.25,0.0
1686009816.5395846,-46.38671875,-54.19921875,-58.10546875,-37.109375,0.0
1686009816.5434885,-34.66796875,-55.6640625,-57.12890625,-22.94921875,0.0
1686009816.5473924,-20.01953125,-60.546875,-55.17578125,-7.8125,0.0
1686009816.5512962,-22.4609375,-67.87109375,-49.8046875,-7.32421875,0.0
1686009816.5552404,-40.0390625,-63.4765625,-45.41015625,-23.92578125,0.0
1686009816.5591445,-32.71484375,-61.5234375,-46.38671875,-10.7421875,0.0
1686009816.5630484,-11.23046875,-55.6640625,-40.52734375,3.41796875,0.0
1686009816.5669522,-9.27734375,-59.08203125,-45.41015625,1.953125,0.0
1686009816.570856,-37.59765625,-63.4765625,-51.7578125,-17.08984375,0.0
1686009816.57476,-36.1328125,-55.17578125,-49.8046875,-28.80859375,0.0
1686009816.5786638,-21.484375,-51.7578125,-59.5703125,-19.53125,0.0
1686009816.5825677,-17.08984375,-56.640625,-61.5234375,-12.6953125,0.0
1686009816.5864718,-29.296875,-58.59375,-56.15234375,-34.66796875,0.0
1686009816.5903757,-33.203125,-60.546875,-56.640625,-39.0625,0.0
1686009816.5942795,-24.4140625,-59.5703125,-53.22265625,-25.390625,0.0
1686009816.5981834,-10.7421875,-57.6171875,-47.36328125,-18.5546875,0.0
1686009816.6021461,-8.30078125,-54.6875,-41.9921875,-22.4609375,0.0
1686009816.60605,-22.94921875,-52.734375,-44.921875,-34.1796875,0.0
1686009816.609954,-29.78515625,-52.734375,-51.26953125,-33.203125,0.0
1686009816.613858,-7.8125,-46.38671875,-48.828125,-9.27734375,0.0
1686009816.6177619,-1.953125,-47.8515625,-49.31640625,-1.953125,0.0
1686009816.6216657,-24.4140625,-52.734375,-55.6640625,-21.97265625,0.0
1686009816.6255696,-19.04296875,-52.24609375,-52.24609375,-17.08984375,0.0
1686009816.6294734,2.44140625,-52.24609375,-45.41015625,2.44140625,0.0
1686009816.6333773,9.27734375,-53.7109375,-46.875,10.7421875,0.0
1686009816.6372814,-11.71875,-52.734375,-45.41015625,-9.765625,0.0
1686009816.6411853,-22.4609375,-47.8515625,-46.875,-20.99609375,0.0
1686009816.6450891,-14.16015625,-49.8046875,-52.734375,-8.30078125,0.0
1686009816.649049,-2.44140625,-56.15234375,-50.78125,2.9296875,0.0
1686009816.652953,-25.87890625,-62.01171875,-50.78125,-18.06640625,0.0
1686009816.6568568,-35.15625,-59.5703125,-52.734375,-27.34375,0.0
1686009816.6607609,-18.5546875,-58.59375,-48.828125,-8.7890625,0.0
1686009816.6646647,-0.9765625,-62.5,-48.33984375,0.48828125,0.0
1686009816.6685686,-8.30078125,-60.05859375,-47.8515625,-6.34765625,0.0
1686009816.6724725,-33.203125,-49.31640625,-39.55078125,-20.99609375,0.0
1686009816.6763763,-27.83203125,-46.38671875,-40.52734375,-22.94921875,0.0
1686009816.6802802,-10.25390625,-50.78125,-47.36328125,-7.8125,0.0
1686009816.6841843,-12.6953125,-52.734375,-46.875,1.953125,0.0
1686009816.6880882,-34.66796875,-54.19921875,-45.41015625,-16.11328125,0.0
1686009816.691992,-34.1796875,-57.12890625,-47.8515625,-22.4609375,0.0
1686009816.695949,-17.08984375,-62.5,-50.78125,-15.625,0.0
1686009816.6998532,-3.90625,-57.6171875,-47.36328125,-9.27734375,0.0
1686009816.703757,-30.76171875,-53.22265625,-45.8984375,-20.5078125,0.0
1686009816.707661,-36.1328125,-60.546875,-51.26953125,-28.3203125,0.0
1686009816.7115648,-12.20703125,-57.12890625,-50.78125,-13.18359375,0.0
1686009816.7154686,3.41796875,-52.734375,-44.921875,4.8828125,0.0
1686009816.7193725,-12.6953125,-56.640625,-46.875,-14.6484375,0.0
1686009816.7232766,-27.34375,-56.15234375,-48.828125,-24.90234375,0.0
1686009816.7271805,-14.16015625,-58.10546875,-49.31640625,-8.7890625,0.0
1686009816.7310843,1.46484375,-58.10546875,-43.45703125,0.48828125,0.0
1686009816.7349882,-8.30078125,-62.5,-43.45703125,-7.8125,0.0
1686009816.738892,-29.78515625,-71.2890625,-48.33984375,-19.53125,0.0
1686009816.7428467,-28.80859375,-70.3125,-45.41015625,-10.7421875,0.0
1686009816.7467506,-9.765625,-61.03515625,-50.29296875,0.48828125,0.0
1686009816.7506545,0.9765625,-53.7109375,-50.29296875,-0.48828125,0.0
1686009816.7545583,-25.87890625,-57.12890625,-43.9453125,-20.99609375,0.0
1686009816.7584624,-31.25,-63.96484375,-43.45703125,-21.484375,0.0
1686009816.7623663,-5.859375,-61.03515625,-45.8984375,-14.16015625,0.0
1686009816.7662702,2.9296875,-57.6171875,-46.38671875,-11.71875,0.0
1686009816.770174,-17.08984375,-53.7109375,-39.0625,-11.23046875,0.0
1686009816.774078,-21.97265625,-56.15234375,-33.69140625,-14.16015625,0.0
1686009816.7779818,-19.04296875,-62.01171875,-41.50390625,-22.94921875,0.0
1686009816.7818859,-12.20703125,-62.5,-50.29296875,-22.4609375,0.0
1686009816.7857897,-20.5078125,-62.01171875,-52.24609375,-31.25,0.0
1686009816.7897418,-32.2265625,-55.6640625,-46.875,-41.50390625,0.0
1686009816.7936459,-24.90234375,-59.5703125,-46.38671875,-36.1328125,0.0
1686009816.7975497,-17.08984375,-65.4296875,-55.17578125,-27.34375,0.0
1686009816.8014536,-26.85546875,-65.4296875,-61.03515625,-32.2265625,0.0
1686009816.8053575,-46.38671875,-71.2890625,-60.05859375,-47.8515625,0.0
1686009816.8092613,-46.875,-71.77734375,-58.10546875,-42.48046875,0.0
1686009816.8131652,-16.11328125,-64.453125,-48.33984375,-18.06640625,0.0
1686009816.8170693,-3.90625,-63.4765625,-46.875,-1.953125,0.0
1686009816.8209732,-38.0859375,-65.91796875,-48.33984375,-22.4609375,0.0
1686009816.824877,-39.0625,-61.03515625,-46.38671875,-23.92578125,0.0
1686009816.828781,-22.4609375,-58.59375,-45.41015625,-15.625,0.0
1686009816.8326848,-11.71875,-62.5,-47.36328125,-20.5078125,0.0
1686009816.8366363,-19.53125,-56.640625,-48.33984375,-22.94921875,0.0
1686009816.8405404,-28.3203125,-53.22265625,-48.828125,-29.78515625,0.0
1686009816.8444443,-26.85546875,-62.01171875,-51.7578125,-32.2265625,0.0
1686009816.8483481,-14.6484375,-62.98828125,-49.31640625,-13.18359375,0.0
1686009816.852252,-21.484375,-55.6640625,-45.41015625,-12.6953125,0.0
1686009816.8561559,-30.2734375,-47.8515625,-44.43359375,-31.25,0.0
1686009816.8600597,-24.90234375,-55.6640625,-47.36328125,-27.83203125,0.0
1686009816.8639638,-24.4140625,-66.40625,-51.7578125,-20.01953125,0.0
1686009816.8678677,-27.83203125,-62.01171875,-52.24609375,-22.4609375,0.0
1686009816.8717716,-47.36328125,-60.05859375,-51.26953125,-37.109375,0.0
1686009816.8756754,-45.41015625,-64.94140625,-49.8046875,-34.1796875,0.0
1686009816.8795793,-24.4140625,-66.89453125,-51.7578125,-20.01953125,0.0
1686009816.883526,-20.01953125,-67.87109375,-48.828125,-13.18359375,0.0
1686009816.88743,-35.15625,-62.98828125,-40.0390625,-28.80859375,0.0
1686009816.8913338,-35.15625,-58.59375,-45.41015625,-42.96875,0.0
1686009816.895238,-26.85546875,-62.01171875,-47.8515625,-35.64453125,0.0
1686009816.8991418,-11.71875,-58.10546875,-48.828125,-15.625,0.0
1686009816.9030457,-21.97265625,-54.6875,-50.29296875,-23.92578125,0.0
1686009816.9069495,-26.85546875,-55.17578125,-40.52734375,-25.87890625,0.0
1686009816.9108534,-21.97265625,-54.6875,-46.875,-19.04296875,0.0
1686009816.9147573,-10.7421875,-52.734375,-51.26953125,-8.30078125,0.0
1686009816.9186614,-8.7890625,-54.19921875,-49.31640625,-9.27734375,0.0
1686009816.9225652,-21.97265625,-55.6640625,-45.8984375,-32.2265625,0.0
1686009816.926469,-21.97265625,-55.17578125,-47.8515625,-34.1796875,0.0
1686009816.9304132,-13.671875,-52.734375,-52.24609375,-16.6015625,0.0
1686009816.934317,-15.625,-55.17578125,-53.22265625,-11.23046875,0.0
1686009816.938221,-46.875,-62.01171875,-55.17578125,-38.0859375,0.0
1686009816.942125,-49.31640625,-56.640625,-55.17578125,-36.1328125,0.0
1686009816.946029,-39.0625,-47.36328125,-47.8515625,-6.8359375,0.0
1686009816.9499328,-28.3203125,-53.22265625,-44.921875,6.34765625,0.0
1686009816.9538367,-45.8984375,-65.4296875,-53.22265625,-13.18359375,0.0
1686009816.9577405,-64.94140625,-67.3828125,-57.6171875,-22.4609375,0.0
1686009816.9616444,-50.29296875,-71.77734375,-61.03515625,-9.27734375,0.0
1686009816.9655485,-23.92578125,-70.3125,-55.17578125,2.44140625,0.0
1686009816.9694524,-38.57421875,-67.3828125,-53.7109375,-16.11328125,0.0
1686009816.9733562,-51.26953125,-64.453125,-57.6171875,-29.78515625,0.0
1686009816.9773183,-32.2265625,-56.15234375,-54.19921875,-24.4140625,0.0
1686009816.9812224,-7.32421875,-58.59375,-50.29296875,-14.16015625,0.0
1686009816.9851263,-9.27734375,-58.59375,-51.7578125,-16.11328125,0.0
1686009816.9890301,-29.78515625,-61.03515625,-46.875,-31.73828125,0.0
1686009816.992934,-30.2734375,-62.5,-40.52734375,-30.76171875,0.0
1686009816.9968379,-20.5078125,-69.3359375,-52.734375,-20.5078125,0.0
1686009817.0007417,-23.4375,-72.265625,-63.4765625,-21.484375,0.0
1686009817.0046458,-41.50390625,-68.84765625,-64.453125,-48.828125,0.0
1686009817.0085497,-32.2265625,-68.84765625,-63.96484375,-48.33984375,0.0
1686009817.0124536,-20.99609375,-64.453125,-64.453125,-27.34375,0.0
1686009817.0163574,-19.04296875,-59.5703125,-58.59375,-23.4375,0.0
1686009817.0202613,-27.83203125,-58.10546875,-51.7578125,-38.57421875,0.0
1686009817.0242212,-34.66796875,-54.6875,-53.7109375,-46.38671875,0.0
1686009817.028125,-26.3671875,-56.15234375,-53.7109375,-29.296875,0.0
1686009817.032029,-6.34765625,-59.08203125,-53.22265625,-14.6484375,0.0
1686009817.0359328,-4.8828125,-55.6640625,-56.640625,-17.08984375,0.0
1686009817.0398366,-23.92578125,-60.546875,-58.10546875,-30.2734375,0.0
1686009817.0437405,-24.90234375,-62.5,-59.5703125,-37.59765625,0.0
1686009817.0476446,-14.16015625,-57.6171875,-62.01171875,-27.34375,0.0
1686009817.0515485,-16.6015625,-66.89453125,-68.84765625,-20.5078125,0.0
1686009817.0554523,-29.78515625,-70.80078125,-60.05859375,-27.34375,0.0
1686009817.0593562,-35.15625,-63.96484375,-53.7109375,-27.34375,0.0
1686009817.06326,-28.3203125,-62.01171875,-60.546875,-24.4140625,0.0
1686009817.0671642,-9.27734375,-63.4765625,-54.19921875,-16.6015625,0.0
1686009817.0711637,-29.78515625,-72.265625,-51.26953125,-27.34375,0.0
1686009817.0750675,-44.43359375,-71.2890625,-60.05859375,-40.0390625,0.0
1686009817.0789714,-26.3671875,-60.05859375,-58.59375,-32.2265625,0.0
1686009817.0828753,-4.39453125,-53.22265625,-52.734375,-12.20703125,0.0
1686009817.0867794,-18.5546875,-56.15234375,-52.24609375,-24.4140625,0.0
1686009817.0906832,-32.71484375,-59.5703125,-57.6171875,-29.78515625,0.0
1686009817.094587,-20.99609375,-55.17578125,-58.59375,-21.97265625,0.0
1686009817.098491,-11.71875,-57.6171875,-60.05859375,-14.16015625,0.0
1686009817.1023948,-11.23046875,-57.12890625,-60.05859375,-8.7890625,0.0
1686009817.1062987,-29.78515625,-56.15234375,-51.7578125,-27.34375,0.0
1686009817.1102028,-31.25,-54.19921875,-50.29296875,-23.4375,0.0
1686009817.1141067,-6.8359375,-47.36328125,-56.15234375,-4.39453125,0.0
1686009817.1180608,-2.44140625,-49.31640625,-57.6171875,-14.6484375,0.0
1686009817.1219647,-23.4375,-52.734375,-45.8984375,-25.87890625,0.0
1686009817.1258688,-20.99609375,-54.6875,-42.48046875,-9.765625,0.0
1686009817.1297727,-7.32421875,-60.05859375,-54.6875,-8.7890625,0.0
1686009817.1336765,-3.41796875,-60.05859375,-52.734375,-6.34765625,0.0
1686009817.1375804,-25.390625,-59.08203125,-48.828125,-19.53125,0.0
1686009817.1414843,-32.71484375,-62.98828125,-45.8984375,-35.15625,0.0
1686009817.1453884,-18.5546875,-64.453125,-46.38671875,-32.71484375,0.0
1686009817.1492922,-9.27734375,-61.03515625,-52.24609375,-18.5546875,0.0
1686009817.153196,-24.4140625,-60.546875,-54.6875,-29.78515625,0.0
1686009817.1571,-40.52734375,-61.5234375,-61.03515625,-46.38671875,0.0
1686009817.1610038,-29.296875,-60.546875,-63.96484375,-33.69140625,0.0
1686009817.1649556,-5.37109375,-54.19921875,-55.17578125,-14.16015625,0.0
1686009817.1688595,-8.30078125,-51.7578125,-52.734375,-11.23046875,0.0
1686009817.1727636,-38.0859375,-58.10546875,-57.12890625,-32.2265625,0.0
1686009817.1766675,-38.57421875,-62.5,-56.15234375,-30.2734375,0.0
1686009817.1805713,-20.01953125,-62.98828125,-51.7578125,-20.5078125,0.0
1686009817.1844752,-13.18359375,-67.87109375,-50.78125,-16.11328125,0.0
1686009817.188379,-27.34375,-66.40625,-52.24609375,-29.296875,0.0
1686009817.1922832,-24.90234375,-61.03515625,-47.36328125,-25.390625,0.0
1686009817.196187,-14.16015625,-59.5703125,-41.50390625,-8.30078125,0.0
1686009817.200091,-5.859375,-58.59375,-43.45703125,-8.7890625,0.0
1686009817.2039948,-19.04296875,-59.5703125,-56.640625,-28.80859375,0.0
1686009817.2078986,-34.1796875,-62.01171875,-62.01171875,-33.203125,0.0
1686009817.2118478,-20.99609375,-53.7109375,-52.734375,-18.06640625,0.0
1686009817.2157516,-5.37109375,-49.8046875,-47.8515625,-3.90625,0.0
1686009817.2196555,-22.4609375,-57.6171875,-51.26953125,-18.06640625,0.0
1686009817.2235594,-40.0390625,-58.10546875,-52.24609375,-36.1328125,0.0
1686009817.2274632,-36.1328125,-60.05859375,-53.7109375,-29.296875,0.0
1686009817.231367,-12.6953125,-59.5703125,-52.734375,-10.25390625,0.0
1686009817.2352712,-6.34765625,-62.98828125,-57.6171875,-10.25390625,0.0
1686009817.239175,-24.90234375,-62.5,-54.19921875,-26.3671875,0.0
1686009817.243079,-27.83203125,-57.6171875,-45.41015625,-19.04296875,0.0
1686009817.2469828,-20.5078125,-52.24609375,-49.31640625,-11.71875,0.0
1686009817.2508867,-7.8125,-42.48046875,-52.24609375,-13.671875,0.0
1686009817.2547908,-18.5546875,-39.55078125,-44.921875,-20.01953125,0.0
1686009817.2587588,-29.296875,-40.0390625,-40.52734375,-28.80859375,0.0
1686009817.2626626,-15.625,-43.45703125,-43.9453125,-21.97265625,0.0
1686009817.2665665,-0.9765625,-55.17578125,-51.26953125,-9.765625,0.0
1686009817.2704704,-20.5078125,-60.546875,-60.05859375,-20.5078125,0.0
1686009817.2743745,-25.87890625,-58.10546875,-59.5703125,-20.01953125,0.0
1686009817.2782784,-14.6484375,-62.5,-56.640625,-9.765625,0.0
1686009817.2821822,-0.9765625,-65.91796875,-57.12890625,-3.41796875,0.0
1686009817.286086,-14.16015625,-63.96484375,-55.17578125,-14.16015625,0.0
1686009817.28999,-33.203125,-60.546875,-52.734375,-39.55078125,0.0
1686009817.293894,-19.53125,-58.10546875,-50.78125,-31.73828125,0.0
1686009817.297798,-1.953125,-55.17578125,-43.9453125,-2.9296875,0.0
1686009817.3017018,-3.90625,-54.19921875,-40.0390625,4.39453125,0.0
1686009817.3056462,-28.3203125,-60.546875,-41.015625,-21.97265625,0.0
1686009817.3095503,-30.2734375,-62.01171875,-40.52734375,-21.97265625,0.0
1686009817.3134542,-11.23046875,-58.10546875,-43.45703125,0.9765625,0.0
1686009817.317358,-4.39453125,-57.6171875,-48.828125,4.8828125,0.0
1686009817.321262,-23.92578125,-58.59375,-50.78125,-14.16015625,0.0
1686009817.3251657,-26.3671875,-60.05859375,-55.6640625,-20.01953125,0.0
1686009817.3290699,-21.484375,-60.05859375,-56.640625,-9.27734375,0.0
1686009817.3329737,-18.06640625,-59.08203125,-50.29296875,5.859375,0.0
1686009817.3368776,-26.85546875,-61.5234375,-43.9453125,-6.34765625,0.0
1686009817.3407815,-20.99609375,-58.59375,-39.0625,-11.71875,0.0
1686009817.3446856,-9.765625,-53.7109375,-44.921875,0.9765625,0.0
1686009817.3485894,-5.37109375,-60.546875,-50.29296875,-0.9765625,0.0
1686009817.3525527,-7.8125,-57.6171875,-47.8515625,-7.32421875,0.0
1686009817.3564565,-26.3671875,-56.640625,-54.6875,-20.01953125,0.0
1686009817.3603604,-28.3203125,-65.91796875,-58.59375,-26.3671875,0.0
1686009817.3642642,-3.41796875,-57.12890625,-57.12890625,-7.8125,0.0
1686009817.3681684,0.48828125,-55.17578125,-58.59375,0.9765625,0.0
1686009817.3720722,-26.3671875,-62.5,-55.6640625,-11.23046875,0.0
1686009817.375976,-23.4375,-57.12890625,-52.24609375,-12.20703125,0.0
1686009817.37988,-13.18359375,-56.640625,-52.734375,-11.71875,0.0
1686009817.3837838,-3.41796875,-57.12890625,-53.7109375,0.0,0.0
1686009817.387688,-17.578125,-51.7578125,-48.828125,-0.9765625,0.0
1686009817.3915918,-37.59765625,-58.59375,-53.7109375,-28.80859375,0.0
1686009817.3954957,-31.25,-66.40625,-57.12890625,-27.34375,0.0
1686009817.3994563,-8.30078125,-62.5,-52.734375,-2.9296875,0.0
1686009817.4033601,-20.99609375,-64.453125,-53.22265625,-16.6015625,0.0
1686009817.407264,-42.96875,-63.4765625,-58.10546875,-33.69140625,0.0
1686009817.4111679,-34.66796875,-57.6171875,-54.6875,-23.4375,0.0
1686009817.415072,-17.08984375,-54.6875,-54.19921875,-13.671875,0.0
1686009817.4189758,-25.390625,-59.08203125,-67.87109375,-33.69140625,0.0
1686009817.4228797,-41.50390625,-60.05859375,-62.98828125,-51.26953125,0.0
1686009817.4267836,-37.59765625,-56.640625,-52.734375,-33.203125,0.0
1686009817.4306874,-21.97265625,-62.01171875,-53.7109375,-18.06640625,0.0
1686009817.4345915,-11.23046875,-64.94140625,-52.24609375,-20.5078125,0.0
1686009817.4384954,-33.203125,-63.96484375,-55.17578125,-41.50390625,0.0
1686009817.4423993,-41.015625,-63.4765625,-63.96484375,-39.0625,0.0
1686009817.4463573,-21.484375,-62.98828125,-59.5703125,-28.80859375,0.0
1686009817.450261,-5.859375,-56.15234375,-59.5703125,-20.99609375,0.0
1686009817.4541652,-26.3671875,-50.29296875,-60.05859375,-28.3203125,0.0
1686009817.458069,-40.52734375,-51.26953125,-53.22265625,-34.66796875,0.0
1686009817.461973,-29.296875,-55.17578125,-54.6875,-27.83203125,0.0
1686009817.4658768,-17.578125,-63.96484375,-55.6640625,-16.6015625,0.0
1686009817.469781,-25.390625,-65.91796875,-52.24609375,-22.4609375,0.0
1686009817.4736848,-30.2734375,-57.6171875,-50.29296875,-30.76171875,0.0
1686009817.4775887,-20.99609375,-56.15234375,-53.22265625,-20.5078125,0.0
1686009817.4814925,-6.34765625,-54.6875,-50.29296875,-7.8125,0.0
1686009817.4853964,-2.44140625,-56.15234375,-51.26953125,0.0,0.0
1686009817.4893005,-20.01953125,-63.4765625,-47.8515625,-14.6484375,0.0
1686009817.4932556,-26.85546875,-63.96484375,-48.33984375,-23.92578125,0.0
1686009817.4971595,-18.06640625,-59.08203125,-53.22265625,-19.53125,0.0
1686009817.5010636,-16.6015625,-62.01171875,-51.26953125,-15.13671875,0.0
1686009817.5049675,-39.55078125,-66.40625,-50.78125,-32.2265625,0.0
1686009817.5088713,-49.8046875,-67.3828125,-53.7109375,-41.015625,0.0
1686009817.5127752,-39.55078125,-61.03515625,-55.6640625,-20.5078125,0.0
1686009817.516679,-23.4375,-56.15234375,-54.19921875,-7.32421875,0.0
1686009817.5205832,-31.25,-60.546875,-54.19921875,-14.6484375,0.0
1686009817.524487,-45.8984375,-62.5,-52.734375,-23.92578125,0.0
1686009817.528391,-42.48046875,-60.05859375,-51.26953125,-26.85546875,0.0
1686009817.5322948,-23.4375,-61.03515625,-53.7109375,-9.765625,0.0
1686009817.5361989,-31.25,-65.4296875,-54.6875,-10.7421875,0.0
1686009817.5401514,-56.640625,-64.94140625,-55.6640625,-26.85546875,0.0
1686009817.5440552,-52.734375,-61.03515625,-48.828125,-27.83203125,0.0
1686009817.5479593,-24.90234375,-57.12890625,-42.48046875,-24.4140625,0.0
1686009817.5518632,-17.578125,-59.08203125,-41.9921875,-15.13671875,0.0
1686009817.555767,-36.62109375,-61.5234375,-44.43359375,-28.3203125,0.0
1686009817.559671,-39.55078125,-65.91796875,-43.45703125,-34.66796875,0.0
1686009817.563575,-25.87890625,-63.96484375,-44.43359375,-17.08984375,0.0
1686009817.567479,-16.6015625,-62.5,-47.36328125,1.953125,0.0
1686009817.5713828,-36.62109375,-69.3359375,-49.31640625,-26.3671875,0.0
1686009817.5752866,-42.48046875,-62.5,-50.78125,-41.015625,0.0
1686009817.5791905,-29.296875,-52.24609375,-49.8046875,-20.5078125,0.0
1686009817.5830946,-13.18359375,-52.24609375,-46.875,-11.71875,0.0
1686009817.5870438,-36.62109375,-59.5703125,-53.22265625,-32.71484375,0.0
1686009817.5909479,-53.22265625,-64.94140625,-54.19921875,-39.55078125,0.0
1686009817.5948517,-32.71484375,-63.96484375,-52.24609375,-20.99609375,0.0
1686009817.5987556,-15.13671875,-56.640625,-52.734375,-6.8359375,0.0
1686009817.6026595,-25.87890625,-58.10546875,-54.19921875,-24.90234375,0.0
1686009817.6065636,-39.0625,-59.5703125,-53.7109375,-41.015625,0.0
1686009817.6104674,-27.34375,-52.24609375,-55.6640625,-24.90234375,0.0
1686009817.6143713,-17.578125,-58.59375,-61.5234375,-16.11328125,0.0
1686009817.6182752,-21.484375,-62.5,-56.15234375,-22.94921875,0.0
1686009817.6221793,-36.62109375,-57.6171875,-51.7578125,-35.64453125,0.0
1686009817.6260831,-37.59765625,-62.01171875,-55.17578125,-33.69140625,0.0
1686009817.629987,-27.83203125,-63.4765625,-56.15234375,-27.34375,0.0
1686009817.6339335,-9.765625,-54.19921875,-55.6640625,-13.671875,0.0
1686009817.6378374,-21.97265625,-50.78125,-56.640625,-20.01953125,0.0
1686009817.6417413,-31.25,-51.7578125,-56.640625,-26.3671875,0.0
1686009817.6456454,-16.6015625,-50.29296875,-57.6171875,-22.94921875,0.0
1686009817.6495492,1.953125,-54.19921875,-55.6640625,-15.13671875,0.0
1686009817.653453,-16.11328125,-63.96484375,-56.15234375,-18.06640625,0.0
1686009817.657357,-32.71484375,-63.4765625,-54.6875,-26.3671875,0.0
1686009817.661261,-28.3203125,-60.546875,-51.7578125,-26.85546875,0.0
1686009817.665165,-15.13671875,-58.59375,-62.01171875,-14.16015625,0.0
1686009817.6690688,-9.27734375,-60.05859375,-70.80078125,-14.16015625,0.0
1686009817.6729727,-35.64453125,-63.4765625,-68.359375,-36.62109375,0.0
1686009817.6768765,-41.50390625,-60.05859375,-63.96484375,-37.59765625,0.0
1686009817.6808212,-20.99609375,-58.10546875,-58.10546875,-15.13671875,0.0
1686009817.684725,-5.859375,-56.640625,-48.828125,-4.39453125,0.0
1686009817.688629,-25.390625,-55.17578125,-45.41015625,-26.85546875,0.0
1686009817.6925328,-37.59765625,-57.12890625,-42.48046875,-32.2265625,0.0
1686009817.696437,-29.78515625,-57.6171875,-41.9921875,-23.4375,0.0
1686009817.7003407,-13.671875,-57.6171875,-49.31640625,-14.6484375,0.0
1686009817.7042446,-30.2734375,-57.12890625,-47.36328125,-24.4140625,0.0
1686009817.7081485,-40.0390625,-52.734375,-45.41015625,-31.73828125,0.0
1686009817.7120526,-29.296875,-51.7578125,-50.78125,-19.53125,0.0
1686009817.7159564,-14.16015625,-54.6875,-60.05859375,-2.44140625,0.0
1686009817.7198603,-23.92578125,-53.22265625,-63.96484375,-13.671875,0.0
1686009817.7237642,-46.875,-52.24609375,-61.03515625,-32.2265625,0.0
1686009817.7277281,-31.25,-56.640625,-61.03515625,-18.06640625,0.0
1686009817.731632,-7.8125,-54.6875,-53.22265625,1.953125,0.0
1686009817.735536,-16.11328125,-62.98828125,-56.15234375,-5.859375,0.0
1686009817.73944,-33.69140625,-66.89453125,-57.6171875,-31.25,0.0
1686009817.7433438,-25.390625,-63.96484375,-57.12890625,-41.015625,0.0
1686009817.7472477,-5.37109375,-62.98828125,-68.359375,-35.15625,0.0
1686009817.7511518,3.90625,-61.5234375,-77.63671875,-31.25,0.0
1686009817.7550557,-12.6953125,-57.12890625,-72.265625,-46.875,0.0
1686009817.7589595,-13.671875,-52.24609375,-63.4765625,-35.15625,0.0
1686009817.7628634,-6.34765625,-58.10546875,-54.6875,1.953125,0.0
1686009817.7667675,-2.44140625,-57.12890625,-42.96875,25.390625,0.0
1686009817.7706714,-25.390625,-53.22265625,-41.50390625,5.37109375,0.0
1686009817.7746327,-43.45703125,-54.19921875,-42.48046875,-14.6484375,0.0
1686009817.7785366,-37.59765625,-53.22265625,-41.50390625,-6.34765625,0.0
1686009817.7824404,-22.4609375,-56.15234375,-42.48046875,3.41796875,0.0
1686009817.7863443,-25.390625,-62.98828125,-48.33984375,-6.8359375,0.0
1686009817.7902484,-42.48046875,-65.91796875,-57.6171875,-28.3203125,0.0
1686009817.7941523,-35.64453125,-62.98828125,-57.6171875,-24.90234375,0.0
1686009817.7980561,-20.99609375,-62.98828125,-60.546875,-17.578125,0.0
1686009817.80196,-12.20703125,-56.15234375,-57.6171875,-9.27734375,0.0
1686009817.805864,-18.06640625,-48.33984375,-42.96875,-13.18359375,0.0
1686009817.809768,-26.3671875,-58.10546875,-47.36328125,-23.4375,0.0
1686009817.8136718,-18.06640625,-58.59375,-46.38671875,-13.18359375,0.0
1686009817.8175757,0.48828125,-56.15234375,-42.48046875,-3.41796875,0.0
1686009817.8215356,-15.13671875,-61.03515625,-48.828125,-17.08984375,0.0
1686009817.8254397,-25.390625,-62.5,-50.29296875,-15.13671875,0.0
1686009817.8293436,-13.671875,-61.5234375,-48.33984375,-7.8125,0.0
1686009817.8332474,5.859375,-54.6875,-46.875,3.90625,0.0
1686009817.8371513,-3.41796875,-51.7578125,-46.875,-3.41796875,0.0
1686009817.8410554,-18.06640625,-55.17578125,-50.78125,-17.08984375,0.0
1686009817.8449593,-14.16015625,-55.6640625,-50.29296875,-8.30078125,0.0
1686009817.8488631,1.46484375,-52.734375,-49.8046875,2.44140625,0.0
1686009817.852767,0.0,-55.6640625,-53.7109375,-7.8125,0.0
1686009817.856671,-32.2265625,-55.6640625,-53.22265625,-35.64453125,0.0
1686009817.860575,-38.57421875,-58.59375,-57.6171875,-36.1328125,0.0
1686009817.8644788,-18.06640625,-60.546875,-60.05859375,-18.06640625,0.0
1686009817.8684337,-6.8359375,-58.59375,-56.15234375,-13.671875,0.0
1686009817.8723376,-28.80859375,-58.59375,-54.6875,-33.69140625,0.0
1686009817.8762414,-28.80859375,-61.5234375,-54.19921875,-35.15625,0.0
1686009817.8801455,-15.625,-63.96484375,-50.78125,-13.671875,0.0
1686009817.8840494,-6.34765625,-61.03515625,-47.8515625,4.39453125,0.0
1686009817.8879533,-20.99609375,-66.40625,-54.6875,-15.625,0.0
1686009817.8918571,-19.04296875,-65.91796875,-54.19921875,-26.85546875,0.0
1686009817.8957613,-1.46484375,-60.546875,-47.36328125,-20.5078125,0.0
1686009817.899665,4.39453125,-66.89453125,-49.8046875,-0.48828125,0.0
1686009817.903569,-12.6953125,-69.3359375,-47.8515625,-9.765625,0.0
1686009817.9074728,-28.3203125,-67.3828125,-47.36328125,-27.83203125,0.0
1686009817.911377,-13.671875,-63.4765625,-49.31640625,-13.671875,0.0
1686009817.915329,-1.46484375,-62.01171875,-47.36328125,2.9296875,0.0
1686009817.9192328,-0.9765625,-58.59375,-43.9453125,2.9296875,0.0
1686009817.923137,-15.625,-58.59375,-47.36328125,-18.5546875,0.0
1686009817.9270408,-19.04296875,-64.453125,-51.7578125,-17.578125,0.0
1686009817.9309447,-10.7421875,-65.4296875,-56.640625,-5.37109375,0.0
1686009817.9348485,-4.8828125,-59.5703125,-62.5,-7.32421875,0.0
1686009817.9387527,-20.99609375,-63.96484375,-63.4765625,-26.3671875,0.0
1686009817.9426565,-29.296875,-71.2890625,-62.01171875,-24.4140625,0.0
1686009817.9465604,-24.4140625,-68.84765625,-60.05859375,-22.4609375,0.0
1686009817.9504645,-13.671875,-65.91796875,-55.17578125,-10.25390625,0.0
1686009817.9543684,-33.203125,-63.4765625,-55.17578125,-22.94921875,0.0
1686009817.9582722,-46.875,-59.08203125,-68.84765625,-45.41015625,0.0
1686009817.9622233,-35.15625,-58.10546875,-74.70703125,-30.76171875,0.0
1686009817.9661272,-22.4609375,-58.10546875,-68.84765625,-12.20703125,0.0
1686009817.970031,-29.296875,-55.6640625,-69.82421875,-22.94921875,0.0
1686009817.9739351,-40.52734375,-55.17578125,-64.94140625,-39.55078125,0.0
1686009817.977839,-22.4609375,-57.6171875,-52.734375,-23.4375,0.0
1686009817.9817429,-7.8125,-62.5,-51.7578125,-0.48828125,0.0
1686009817.985647,-20.5078125,-67.3828125,-61.5234375,-2.9296875,0.0
1686009817.9895508,-38.57421875,-66.89453125,-60.546875,-22.94921875,0.0
1686009817.9934547,-36.1328125,-56.640625,-51.26953125,-24.90234375,0.0
1686009817.9973586,-20.01953125,-49.31640625,-46.38671875,-3.90625,0.0
1686009818.0012627,-4.8828125,-52.24609375,-50.29296875,5.37109375,0.0
1686009818.0051665,-18.5546875,-51.7578125,-54.6875,-17.08984375,0.0
1686009818.0091143,-23.92578125,-55.6640625,-56.640625,-24.4140625,0.0
1686009818.0130181,-16.6015625,-62.98828125,-57.12890625,-8.7890625,0.0
1686009818.0169222,-1.46484375,-56.640625,-52.24609375,-1.46484375,0.0
1686009818.020826,-9.765625,-53.22265625,-48.33984375,-18.5546875,0.0
1686009818.02473,-24.90234375,-51.7578125,-46.875,-27.83203125,0.0
1686009818.0286338,-23.4375,-52.734375,-43.9453125,-17.08984375,0.0
1686009818.032538,-3.90625,-52.24609375,-52.24609375,5.859375,0.0
1686009818.0364418,-11.23046875,-47.36328125,-54.19921875,1.953125,0.0
1686009818.0403457,-33.69140625,-54.19921875,-45.8984375,-24.90234375,0.0
1686009818.0442495,-23.4375,-52.24609375,-48.33984375,-24.90234375,0.0
1686009818.0481536,-8.30078125,-42.48046875,-47.8515625,-4.8828125,0.0
1686009818.0520575,-7.8125,-47.8515625,-48.828125,-8.7890625,0.0
1686009818.0560024,-34.1796875,-54.6875,-54.6875,-33.69140625,0.0
1686009818.0599065,-41.9921875,-59.5703125,-56.640625,-29.296875,0.0
1686009818.0638103,-24.90234375,-61.03515625,-50.29296875,-8.7890625,0.0
1686009818.0677142,-15.13671875,-55.17578125,-44.921875,-0.9765625,0.0
1686009818.071618,-30.76171875,-54.6875,-44.921875,-24.4140625,0.0
1686009818.0755222,-37.59765625,-55.17578125,-43.9453125,-25.87890625,0.0
1686009818.079426,-23.92578125,-48.828125,-41.50390625,-11.23046875,0.0
1686009818.08333,-2.44140625,-41.015625,-41.015625,-6.34765625,0.0
1686009818.0872338,-18.06640625,-45.8984375,-44.921875,-18.06640625,0.0
1686009818.091138,-36.1328125,-57.6171875,-49.8046875,-32.2265625,0.0
1686009818.0950418,-21.484375,-60.05859375,-43.45703125,-21.484375,0.0
1686009818.0989456,-5.37109375,-59.08203125,-40.52734375,-5.37109375,0.0
1686009818.1029098,-10.25390625,-58.59375,-51.26953125,-6.34765625,0.0
1686009818.1068137,-24.90234375,-62.98828125,-50.29296875,-15.625,0.0
1686009818.1107178,-24.4140625,-62.98828125,-41.50390625,-19.53125,0.0
1686009818.1146216,-9.765625,-55.17578125,-50.78125,-19.53125,0.0
1686009818.1185255,2.44140625,-53.22265625,-55.17578125,-12.20703125,0.0
1686009818.1224296,-25.87890625,-58.59375,-49.31640625,-21.97265625,0.0
1686009818.1263335,-32.2265625,-60.05859375,-44.921875,-22.4609375,0.0
1686009818.1302373,-10.7421875,-54.6875,-42.96875,-9.27734375,0.0
1686009818.1341412,1.46484375,-54.19921875,-49.31640625,-4.39453125,0.0
1686009818.1380453,-3.90625,-53.22265625,-44.43359375,-0.9765625,0.0
1686009818.1419492,-23.4375,-52.734375,-39.0625,-15.625,0.0
1686009818.145853,-18.06640625,-51.7578125,-39.0625,-18.06640625,0.0
1686009818.1498146,6.34765625,-51.26953125,-41.50390625,5.37109375,0.0
1686009818.1537185,-5.37109375,-57.6171875,-43.9453125,-7.32421875,0.0
1686009818.1576226,-30.2734375,-62.5,-47.8515625,-35.64453125,0.0
1686009818.1615264,-22.4609375,-55.17578125,-48.33984375,-28.80859375,0.0
1686009818.1654303,-2.44140625,-53.22265625,-44.43359375,-11.23046875,0.0
1686009818.1693342,-3.90625,-51.26953125,-50.78125,-6.34765625,0.0
1686009818.1732383,-28.3203125,-52.24609375,-56.640625,-27.34375,0.0
1686009818.1771421,-21.97265625,-48.33984375,-50.78125,-22.94921875,0.0
1686009818.181046,0.9765625,-42.96875,-43.9453125,8.30078125,0.0
1686009818.1849499,2.44140625,-51.26953125,-44.43359375,11.23046875,0.0
1686009818.188854,-22.4609375,-51.26953125,-47.36328125,-19.53125,0.0
1686009818.1927578,-23.4375,-49.8046875,-49.31640625,-24.90234375,0.0
1686009818.1967168,-14.16015625,-56.15234375,-45.41015625,-4.39453125,0.0
1686009818.200621,-4.8828125,-55.17578125,-42.96875,5.859375,0.0
1686009818.2045248,-21.97265625,-50.78125,-41.50390625,-9.27734375,0.0
1686009818.2084286,-25.87890625,-45.41015625,-41.015625,-20.99609375,0.0
1686009818.2123325,-8.7890625,-41.015625,-39.0625,-16.6015625,0.0
1686009818.2162366,-3.90625,-50.29296875,-39.55078125,-11.71875,0.0
1686009818.2201405,-6.8359375,-52.24609375,-45.8984375,-16.6015625,0.0
1686009818.2240443,-10.25390625,-45.8984375,-45.8984375,-22.4609375,0.0
1686009818.2279484,-4.8828125,-44.921875,-39.55078125,-8.30078125,0.0
1686009818.2318523,-13.671875,-48.33984375,-41.9921875,-6.8359375,0.0
1686009818.2357562,-22.4609375,-59.08203125,-49.31640625,-8.30078125,0.0
1686009818.23966,-29.78515625,-56.640625,-48.33984375,-16.11328125,0.0
1686009818.2436163,-29.296875,-52.24609375,-48.33984375,-28.3203125,0.0
1686009818.2475202,-21.484375,-55.6640625,-47.8515625,-15.625,0.0
1686009818.251424,-11.71875,-53.7109375,-48.828125,3.41796875,0.0
1686009818.255328,-25.87890625,-53.7109375,-53.22265625,-14.16015625,0.0
1686009818.259232,-31.73828125,-43.45703125,-43.9453125,-17.578125,0.0
1686009818.263136,-21.97265625,-40.52734375,-43.9453125,-7.8125,0.0
1686009818.2670398,-10.7421875,-50.78125,-54.6875,0.0,0.0
1686009818.2709439,-24.4140625,-62.01171875,-57.12890625,-11.71875,0.0
1686009818.2748477,-38.57421875,-67.87109375,-58.59375,-30.76171875,0.0
1686009818.2787516,-32.2265625,-62.5,-57.6171875,-32.2265625,0.0
1686009818.2826555,-14.16015625,-55.17578125,-52.24609375,-17.578125,0.0
1686009818.2865596,-8.7890625,-55.6640625,-54.19921875,-11.71875,0.0
1686009818.2905118,-26.85546875,-55.17578125,-56.640625,-33.69140625,0.0
1686009818.294416,-36.1328125,-50.29296875,-51.26953125,-50.29296875,0.0
1686009818.2983198,-16.11328125,-42.96875,-43.45703125,-30.2734375,0.0
1686009818.3022237,-11.71875,-49.31640625,-48.33984375,-16.11328125,0.0
1686009818.3061278,-41.50390625,-60.546875,-56.15234375,-38.0859375,0.0
1686009818.3100317,-41.015625,-62.5,-54.6875,-39.0625,0.0
1686009818.3139355,-19.04296875,-61.03515625,-47.36328125,-25.390625,0.0
1686009818.3178394,-7.8125,-62.5,-50.29296875,-11.23046875,0.0
1686009818.3217435,-35.15625,-63.4765625,-56.640625,-27.83203125,0.0
1686009818.3256474,-45.8984375,-61.5234375,-50.78125,-39.0625,0.0
1686009818.3295512,-27.34375,-61.03515625,-50.29296875,-30.2734375,0.0
1686009818.3334553,-11.71875,-53.7109375,-49.8046875,-14.16015625,0.0
1686009818.337405,-24.4140625,-49.8046875,-50.78125,-15.13671875,0.0
1686009818.3413088,-41.9921875,-57.12890625,-53.7109375,-35.64453125,0.0
1686009818.3452127,-28.80859375,-62.01171875,-50.78125,-32.71484375,0.0
1686009818.3491168,-10.7421875,-62.5,-49.31640625,-9.765625,0.0
1686009818.3530207,-9.27734375,-60.546875,-52.24609375,-5.859375,0.0
1686009818.3569245,-23.4375,-66.40625,-48.828125,-26.3671875,0.0
1686009818.3608286,-26.3671875,-64.94140625,-44.921875,-26.3671875,0.0
1686009818.3647325,-7.8125,-60.05859375,-47.36328125,-11.23046875,0.0
1686009818.3686364,-2.9296875,-56.640625,-50.78125,-14.16015625,0.0
1686009818.3725405,-28.3203125,-52.734375,-51.7578125,-27.34375,0.0
1686009818.3764443,-26.85546875,-57.6171875,-49.31640625,-23.4375,0.0
1686009818.3803482,-20.5078125,-63.96484375,-50.29296875,-25.390625,0.0
1686009818.3842952,-21.97265625,-60.05859375,-52.24609375,-21.97265625,0.0
1686009818.388199,-39.0625,-61.5234375,-50.78125,-28.3203125,0.0
1686009818.3921032,-46.875,-65.4296875,-53.7109375,-32.71484375,0.0
1686009818.396007,-41.015625,-67.87109375,-55.6640625,-32.71484375,0.0
1686009818.399911,-21.97265625,-66.89453125,-49.31640625,-13.18359375,0.0
1686009818.403815,-18.5546875,-65.4296875,-44.921875,-10.7421875,0.0
1686009818.407719,-33.69140625,-67.3828125,-53.22265625,-27.83203125,0.0
1686009818.4116228,-30.76171875,-62.5,-51.7578125,-24.90234375,0.0
1686009818.4155269,-18.5546875,-60.546875,-46.38671875,-21.484375,0.0
1686009818.4194307,-24.90234375,-62.98828125,-46.875,-27.34375,0.0
1686009818.4233346,-47.8515625,-62.5,-49.31640625,-42.48046875,0.0
1686009818.4272387,-41.9921875,-57.6171875,-51.7578125,-35.64453125,0.0
1686009818.4311836,-27.34375,-58.59375,-51.7578125,-23.4375,0.0
1686009818.4350874,-17.578125,-61.5234375,-51.26953125,-19.04296875,0.0
1686009818.4389913,-31.25,-55.6640625,-57.6171875,-26.3671875,0.0
1686009818.4428952,-36.62109375,-52.734375,-62.98828125,-26.3671875,0.0
1686009818.4467993,-22.4609375,-51.26953125,-58.10546875,-26.3671875,0.0
1686009818.4507031,-1.953125,-49.31640625,-48.828125,-19.04296875,0.0
1686009818.454607,-16.11328125,-51.26953125,-47.36328125,-21.484375,0.0
1686009818.458511,-44.921875,-53.22265625,-51.7578125,-41.015625,0.0
1686009818.462415,-35.15625,-55.17578125,-54.6875,-32.2265625,0.0
1686009818.4663188,-19.04296875,-59.08203125,-62.01171875,-16.6015625,0.0
1686009818.470223,-22.94921875,-64.94140625,-61.03515625,-24.4140625,0.0
1686009818.4741268,-37.109375,-67.3828125,-59.08203125,-34.1796875,0.0
1686009818.4781125,-37.59765625,-58.59375,-57.12890625,-29.78515625,0.0
1686009818.4820163,-15.625,-52.24609375,-47.8515625,-8.7890625,0.0
1686009818.4859202,-2.44140625,-55.17578125,-48.828125,-7.32421875,0.0
1686009818.489824,-23.4375,-53.7109375,-51.7578125,-37.109375,0.0
1686009818.4937282,-17.578125,-54.19921875,-49.8046875,-30.76171875,0.0
1686009818.497632,8.30078125,-59.08203125,-46.38671875,-15.13671875,0.0
1686009818.501536,6.8359375,-62.01171875,-44.43359375,-10.7421875,0.0
1686009818.50544,-28.3203125,-60.546875,-43.45703125,-17.08984375,0.0
1686009818.5093439,-39.55078125,-60.546875,-36.1328125,-11.71875,0.0
1686009818.5132477,-26.3671875,-64.453125,-35.64453125,-1.953125,0.0
1686009818.5171518,-20.5078125,-67.3828125,-44.921875,7.32421875,0.0
1686009818.5210557,-31.73828125,-68.359375,-46.38671875,5.37109375,0.0
1686009818.5250163,-45.41015625,-65.91796875,-43.9453125,-12.20703125,0.0
1686009818.5289202,-38.57421875,-61.5234375,-44.43359375,-13.671875,0.0
1686009818.5328243,-16.11328125,-56.15234375,-39.55078125,-0.9765625,0.0
1686009818.5367281,-8.30078125,-48.33984375,-32.2265625,3.90625,0.0
1686009818.540632,-29.296875,-53.22265625,-41.015625,-12.20703125,0.0
1686009818.544536,-29.78515625,-62.01171875,-44.43359375,-28.80859375,0.0
1686009818.54844,-17.578125,-60.546875,-43.9453125,-17.578125,0.0
1686009818.5523438,-25.390625,-60.05859375,-50.29296875,-9.27734375,0.0
1686009818.556248,-40.0390625,-63.4765625,-48.828125,-23.4375,0.0
1686009818.5601518,-35.15625,-60.546875,-41.50390625,-23.4375,0.0
1686009818.5640557,-23.92578125,-57.6171875,-39.0625,-10.7421875,0.0
1686009818.5679598,-10.7421875,-59.5703125,-46.38671875,-1.953125,0.0
1686009818.5719178,-29.78515625,-62.5,-53.22265625,-30.76171875,0.0
1686009818.5758219,-39.0625,-61.03515625,-50.29296875,-42.96875,0.0
1686009818.5797257,-27.83203125,-60.05859375,-50.78125,-30.2734375,0.0
1686009818.5836296,-16.6015625,-58.59375,-55.17578125,-21.484375,0.0
1686009818.5875337,-28.80859375,-58.59375,-59.08203125,-33.69140625,0.0
1686009818.5914376,-50.78125,-60.546875,-55.6640625,-52.24609375,0.0
1686009818.5953414,-45.41015625,-60.546875,-51.26953125,-48.828125,0.0
1686009818.5992455,-18.06640625,-62.01171875,-51.26953125,-29.296875,0.0
1686009818.6031494,-13.18359375,-62.01171875,-47.8515625,-18.5546875,0.0
1686009818.6070533,-47.36328125,-61.5234375,-50.78125,-48.33984375,0.0
1686009818.6109574,-50.29296875,-63.4765625,-58.59375,-55.6640625,0.0
1686009818.6148612,-31.73828125,-63.4765625,-58.59375,-37.109375,0.0
1686009818.6188166,-17.578125,-58.10546875,-54.6875,-26.85546875,0.0
1686009818.6227207,-38.0859375,-58.59375,-59.08203125,-43.9453125,0.0
1686009818.6266246,-43.9453125,-52.734375,-52.734375,-55.6640625,0.0
1686009818.6305285,-26.3671875,-47.8515625,-39.55078125,-41.015625,0.0
1686009818.6344326,-13.18359375,-50.78125,-41.015625,-23.92578125,0.0
1686009818.6383364,-26.85546875,-54.6875,-52.734375,-40.0390625,0.0
1686009818.6422403,-41.9921875,-52.24609375,-54.19921875,-51.7578125,0.0
1686009818.6461444,-29.78515625,-53.7109375,-53.22265625,-32.71484375,0.0
1686009818.6500483,-12.20703125,-64.453125,-54.19921875,-18.5546875,0.0
1686009818.6539521,-16.11328125,-56.15234375,-48.828125,-23.92578125,0.0
1686009818.6578562,-35.64453125,-52.734375,-49.31640625,-36.1328125,0.0
1686009818.66176,-35.15625,-60.546875,-51.7578125,-37.59765625,0.0
1686009818.6657133,-14.6484375,-62.01171875,-46.875,-25.87890625,0.0
1686009818.6696172,-15.13671875,-64.94140625,-47.8515625,-22.4609375,0.0
1686009818.673521,-36.1328125,-62.98828125,-50.29296875,-41.9921875,0.0
1686009818.6774251,-34.66796875,-55.17578125,-45.41015625,-39.0625,0.0
1686009818.681329,-16.6015625,-52.734375,-45.8984375,-16.6015625,0.0
1686009818.6852329,-6.8359375,-55.6640625,-56.15234375,-5.859375,0.0
1686009818.689137,-28.80859375,-53.7109375,-59.08203125,-25.390625,0.0
1686009818.6930408,-30.2734375,-49.31640625,-52.24609375,-25.87890625,0.0
1686009818.6969447,-19.53125,-50.78125,-49.8046875,-20.5078125,0.0
1686009818.7008486,-13.671875,-54.19921875,-53.22265625,-12.20703125,0.0
1686009818.7047527,-27.83203125,-57.6171875,-58.59375,-23.4375,0.0
1686009818.7086565,-47.8515625,-57.6171875,-62.01171875,-46.38671875,0.0
1686009818.712607,-36.1328125,-51.26953125,-59.08203125,-37.59765625,0.0
1686009818.716511,-16.11328125,-51.7578125,-56.640625,-17.08984375,0.0
1686009818.7204149,-15.625,-62.01171875,-60.546875,-23.4375,0.0
1686009818.7243187,-25.87890625,-65.4296875,-62.98828125,-39.55078125,0.0
1686009818.7282228,-21.484375,-54.19921875,-59.5703125,-32.2265625,0.0
1686009818.7321267,-4.8828125,-44.921875,-59.5703125,-11.71875,0.0
1686009818.7360306,1.46484375,-46.875,-54.19921875,2.9296875,0.0
1686009818.7399347,-30.76171875,-57.6171875,-54.6875,-24.4140625,0.0
1686009818.7438385,-40.0390625,-57.6171875,-51.7578125,-41.015625,0.0
1686009818.7477424,-20.99609375,-50.29296875,-44.921875,-26.3671875,0.0
1686009818.7516465,-3.41796875,-50.78125,-55.17578125,-15.13671875,0.0
1686009818.7555504,-27.83203125,-57.12890625,-63.4765625,-30.76171875,0.0
1686009818.7594988,-38.0859375,-61.5234375,-57.12890625,-36.1328125,0.0
1686009818.763403,-19.04296875,-60.05859375,-56.640625,-19.53125,0.0
1686009818.7673068,-4.39453125,-60.05859375,-58.10546875,-2.44140625,0.0
1686009818.7712107,-13.18359375,-66.40625,-54.19921875,-18.06640625,0.0
1686009818.7751148,-28.3203125,-60.546875,-49.8046875,-36.1328125,0.0
1686009818.7790186,-28.80859375,-58.59375,-46.38671875,-15.625,0.0
1686009818.7829225,-13.671875,-64.94140625,-46.875,3.90625,0.0
1686009818.7868266,-11.23046875,-65.91796875,-48.828125,-15.13671875,0.0
1686009818.7907305,-34.1796875,-65.4296875,-48.828125,-37.109375,0.0
1686009818.7946343,-33.203125,-57.6171875,-46.38671875,-25.390625,0.0
1686009818.7985384,-10.25390625,-51.7578125,-51.7578125,-0.9765625,0.0
1686009818.8024423,-0.9765625,-51.26953125,-51.7578125,0.48828125,0.0
1686009818.8063889,-29.78515625,-55.17578125,-49.8046875,-28.3203125,0.0
1686009818.8102927,-35.64453125,-56.15234375,-51.26953125,-27.34375,0.0
1686009818.8141966,-20.5078125,-50.29296875,-44.921875,-5.37109375,0.0
1686009818.8181007,-9.27734375,-55.17578125,-45.41015625,-8.7890625,0.0
1686009818.8220046,-22.4609375,-66.40625,-46.875,-26.85546875,0.0
1686009818.8259084,-38.0859375,-71.2890625,-43.45703125,-30.2734375,0.0
1686009818.8298125,-35.15625,-69.82421875,-52.24609375,-26.3671875,0.0
1686009818.8337164,-19.53125,-63.4765625,-57.12890625,-17.08984375,0.0
1686009818.8376203,-27.83203125,-62.01171875,-59.08203125,-26.3671875,0.0
1686009818.8415244,-39.55078125,-63.96484375,-59.08203125,-32.2265625,0.0
1686009818.8454282,-34.1796875,-64.453125,-50.29296875,-26.85546875,0.0
1686009818.849332,-15.625,-62.5,-45.8984375,-20.5078125,0.0
1686009818.853296,-16.11328125,-57.6171875,-43.9453125,-15.625,0.0
1686009818.8572001,-41.50390625,-61.5234375,-43.9453125,-36.62109375,0.0
1686009818.861104,-38.0859375,-58.59375,-52.734375,-41.50390625,0.0
1686009818.8650079,-20.5078125,-52.734375,-54.19921875,-26.85546875,0.0
1686009818.868912,-10.7421875,-55.17578125,-49.8046875,-17.08984375,0.0
1686009818.8728158,-29.296875,-54.19921875,-48.828125,-27.34375,0.0
1686009818.8767197,-32.2265625,-53.22265625,-46.38671875,-33.203125,0.0
1686009818.8806238,-17.08984375,-59.08203125,-44.43359375,-22.94921875,0.0
1686009818.8845277,-3.41796875,-57.12890625,-45.8984375,-10.7421875,0.0
1686009818.8884315,-3.41796875,-50.78125,-47.36328125,-17.08984375,0.0
1686009818.8923357,-18.06640625,-52.24609375,-43.9453125,-28.80859375,0.0
1686009818.8962395,-17.08984375,-46.875,-38.57421875,-10.25390625,0.0
1686009818.9002008,1.953125,-45.8984375,-41.50390625,5.859375,0.0
1686009818.9041047,-8.7890625,-56.15234375,-51.7578125,-8.7890625,0.0
1686009818.9080086,-35.15625,-57.12890625,-53.7109375,-26.85546875,0.0
1686009818.9119127,-36.1328125,-52.734375,-48.828125,-23.4375,0.0
1686009818.9158165,-20.5078125,-57.6171875,-41.50390625,-0.9765625,0.0
1686009818.9197206,-21.97265625,-66.40625,-43.45703125,-4.39453125,0.0
1686009818.9236245,-43.45703125,-62.98828125,-46.875,-28.80859375,0.0
1686009818.9275284,-41.50390625,-58.59375,-48.828125,-28.80859375,0.0
1686009818.9314325,-15.13671875,-56.15234375,-47.8515625,-9.27734375,0.0
1686009818.9353364,-3.41796875,-61.5234375,-52.734375,0.0,0.0
1686009818.9392402,-34.66796875,-66.89453125,-59.5703125,-30.76171875,0.0
1686009818.9431443,-47.8515625,-69.3359375,-57.12890625,-40.0390625,0.0
1686009818.9471025,-33.203125,-68.359375,-50.78125,-26.85546875,0.0
1686009818.9510064,-9.765625,-66.40625,-45.41015625,-7.32421875,0.0
1686009818.9549105,-8.30078125,-66.89453125,-45.8984375,-1.953125,0.0
1686009818.9588144,-35.64453125,-59.5703125,-46.875,-27.83203125,0.0
1686009818.9627182,-42.48046875,-54.6875,-44.921875,-32.2265625,0.0
1686009818.9666224,-17.578125,-58.10546875,-46.38671875,-13.18359375,0.0
1686009818.9705262,-24.4140625,-62.98828125,-52.24609375,-20.99609375,0.0
1686009818.9744303,-38.57421875,-60.05859375,-51.26953125,-32.71484375,0.0
1686009818.9783342,-23.4375,-58.10546875,-51.26953125,-20.01953125,0.0
1686009818.982238,-22.94921875,-66.40625,-57.12890625,-21.484375,0.0
1686009818.9861422,-18.5546875,-66.89453125,-61.03515625,-23.4375,0.0
1686009818.990046,-30.76171875,-67.3828125,-61.03515625,-29.78515625,0.0
1686009818.9940019,-29.296875,-68.359375,-61.5234375,-33.203125,0.0
1686009818.9979057,-7.8125,-57.12890625,-58.59375,-22.4609375,0.0
1686009819.0018098,0.0,-48.828125,-53.7109375,-8.7890625,0.0
1686009819.0057137,-16.6015625,-55.17578125,-55.6640625,-18.06640625,0.0
1686009819.0096176,-27.34375,-57.6171875,-62.98828125,-32.71484375,0.0
1686009819.0135217,-17.08984375,-55.17578125,-59.08203125,-20.01953125,0.0
1686009819.0174255,-2.44140625,-51.26953125,-54.19921875,-1.953125,0.0
1686009819.0213294,-14.6484375,-48.33984375,-49.31640625,-8.30078125,0.0
1686009819.0252335,-31.73828125,-53.7109375,-48.33984375,-24.4140625,0.0
1686009819.0291374,-28.80859375,-61.03515625,-51.26953125,-30.76171875,0.0
1686009819.0330412,-4.39453125,-62.98828125,-50.29296875,-9.765625,0.0
1686009819.0369453,0.48828125,-61.03515625,-52.734375,0.48828125,0.0
1686009819.0409207,-23.92578125,-60.05859375,-50.78125,-18.06640625,0.0
1686009819.0448246,-26.3671875,-63.4765625,-47.36328125,-11.71875,0.0
1686009819.0487287,-8.30078125,-64.453125,-40.52734375,4.8828125,0.0
1686009819.0526326,7.8125,-58.10546875,-37.59765625,8.7890625,0.0
1686009819.0565364,-20.5078125,-57.6171875,-43.9453125,-9.765625,0.0
1686009819.0604405,-29.78515625,-56.15234375,-41.9921875,-10.7421875,0.0
1686009819.0643444,-8.30078125,-53.22265625,-39.55078125,4.8828125,0.0
1686009819.0682483,5.37109375,-63.96484375,-44.43359375,11.23046875,0.0
1686009819.0721524,-8.30078125,-66.40625,-46.38671875,-8.7890625,0.0
1686009819.0760562,-22.4609375,-63.96484375,-50.78125,-39.55078125,0.0
1686009819.07996,-19.53125,-56.640625,-52.734375,-32.2265625,0.0
1686009819.0838642,-3.41796875,-56.640625,-59.5703125,-9.765625,0.0
1686009819.0878143,-3.90625,-57.12890625,-57.6171875,-15.13671875,0.0
1686009819.0917182,-19.53125,-54.6875,-55.6640625,-24.4140625,0.0
1686009819.095622,-8.7890625,-57.12890625,-61.03515625,-10.7421875,0.0
1686009819.0995262,6.8359375,-58.10546875,-61.03515625,-3.41796875,0.0
1686009819.10343,2.9296875,-52.734375,-55.6640625,-7.8125,0.0
1686009819.1073341,-16.6015625,-46.875,-45.8984375,-23.4375,0.0
1686009819.111238,-21.97265625,-51.26953125,-48.828125,-26.85546875,0.0
1686009819.1151419,-18.5546875,-56.640625,-53.7109375,-22.4609375,0.0
1686009819.119046,-15.625,-56.640625,-55.17578125,-17.08984375,0.0
1686009819.1229498,-36.62109375,-54.6875,-56.15234375,-37.109375,0.0
1686009819.1268537,-43.9453125,-59.08203125,-59.08203125,-41.50390625,0.0
1686009819.1307578,-30.76171875,-66.40625,-61.03515625,-30.76171875,0.0
1686009819.1347048,-19.04296875,-67.3828125,-58.10546875,-30.2734375,0.0
1686009819.138609,-27.83203125,-59.08203125,-59.08203125,-32.71484375,0.0
1686009819.1425128,-37.59765625,-48.828125,-60.05859375,-41.9921875,0.0
1686009819.146417,-32.71484375,-47.36328125,-50.29296875,-41.50390625,0.0
1686009819.1503208,-18.06640625,-56.15234375,-39.55078125,-22.4609375,0.0
1686009819.1542246,-26.3671875,-66.89453125,-49.31640625,-25.87890625,0.0
1686009819.1581287,-54.6875,-69.3359375,-62.01171875,-40.0390625,0.0
1686009819.1620326,-48.33984375,-63.4765625,-56.15234375,-30.2734375,0.0
1686009819.1659365,-29.78515625,-60.05859375,-52.24609375,-20.01953125,0.0
1686009819.1698406,-32.2265625,-60.05859375,-57.12890625,-20.01953125,0.0
1686009819.1737444,-34.1796875,-62.98828125,-52.734375,-26.3671875,0.0
1686009819.1776485,-26.85546875,-59.5703125,-46.38671875,-21.484375,0.0
1686009819.1815944,-32.71484375,-52.24609375,-47.36328125,-22.94921875,0.0
1686009819.1854982,-32.71484375,-51.26953125,-49.31640625,-30.2734375,0.0
1686009819.189402,-55.17578125,-56.15234375,-51.7578125,-60.546875,0.0
1686009819.1933062,-57.6171875,-59.08203125,-61.5234375,-64.453125,0.0
1686009819.19721,-31.73828125,-52.24609375,-59.08203125,-34.1796875,0.0
1686009819.2011142,-8.30078125,-50.78125,-48.33984375,-13.671875,0.0
1686009819.205018,-16.6015625,-61.03515625,-48.828125,-26.85546875,0.0
1686009819.208922,-33.69140625,-57.6171875,-46.875,-40.0390625,0.0
1686009819.212826,-31.25,-50.78125,-50.29296875,-33.69140625,0.0
1686009819.2167299,-25.390625,-50.29296875,-56.15234375,-24.4140625,0.0
1686009819.2206337,-35.15625,-56.640625,-52.24609375,-22.94921875,0.0
1686009819.2245378,-53.7109375,-58.59375,-51.7578125,-40.0390625,0.0
1686009819.2285028,-49.8046875,-57.12890625,-56.640625,-45.8984375,0.0
1686009819.2324066,-28.3203125,-56.15234375,-56.15234375,-33.203125,0.0
1686009819.2363105,-19.53125,-58.10546875,-52.734375,-25.390625,0.0
1686009819.2402146,-32.2265625,-55.6640625,-47.36328125,-39.55078125,0.0
1686009819.2441185,-31.25,-52.24609375,-51.26953125,-39.0625,0.0
1686009819.2480226,-16.11328125,-55.6640625,-53.7109375,-16.6015625,0.0
1686009819.2519264,-0.9765625,-58.59375,-55.17578125,-13.18359375,0.0
1686009819.2558303,-17.578125,-58.10546875,-54.19921875,-31.73828125,0.0
1686009819.2597344,-30.76171875,-56.640625,-50.78125,-31.25,0.0
1686009819.2636383,-25.87890625,-62.98828125,-46.38671875,-14.16015625,0.0
1686009819.2675421,-23.92578125,-67.3828125,-43.9453125,5.37109375,0.0
1686009819.2714462,-36.62109375,-68.359375,-44.43359375,6.34765625,0.0
1686009819.2754095,-53.7109375,-70.80078125,-47.36328125,-3.90625,0.0
1686009819.2793136,-46.875,-70.3125,-48.828125,6.34765625,0.0
1686009819.2832174,-21.97265625,-66.40625,-42.48046875,14.6484375,0.0
1686009819.2871213,-15.625,-64.453125,-44.43359375,13.671875,0.0
1686009819.2910254,-23.4375,-62.01171875,-45.41015625,-0.48828125,0.0
1686009819.2949293,-19.53125,-60.05859375,-41.50390625,-9.27734375,0.0
1686009819.2988334,-11.71875,-57.12890625,-46.875,-2.9296875,0.0
1686009819.3027372,-7.32421875,-57.6171875,-49.8046875,-2.9296875,0.0
1686009819.306641,-26.85546875,-60.546875,-48.33984375,-17.08984375,0.0
1686009819.3105452,-32.2265625,-63.96484375,-58.10546875,-20.99609375,0.0
1686009819.314449,-19.04296875,-64.453125,-62.98828125,-31.73828125,0.0
1686009819.3183532,-12.20703125,-68.84765625,-56.15234375,-23.92578125,0.0
1686009819.3223126,-20.01953125,-66.89453125,-50.78125,-20.01953125,0.0
1686009819.3262167,-23.92578125,-60.546875,-47.8515625,-27.83203125,0.0
1686009819.3301206,-14.16015625,-59.5703125,-49.31640625,-23.4375,0.0
1686009819.3340247,-11.71875,-63.4765625,-56.15234375,-18.06640625,0.0
1686009819.3379285,-21.97265625,-66.89453125,-59.5703125,-35.15625,0.0
1686009819.3418324,-41.015625,-63.96484375,-61.5234375,-47.36328125,0.0
1686009819.3457365,-41.50390625,-59.5703125,-54.19921875,-37.59765625,0.0
1686009819.3496404,-27.34375,-63.4765625,-55.6640625,-35.15625,0.0
1686009819.3535442,-20.99609375,-69.82421875,-61.5234375,-25.390625,0.0
1686009819.3574483,-45.41015625,-73.73046875,-58.59375,-49.31640625,0.0
1686009819.3613522,-46.875,-69.82421875,-56.640625,-56.15234375,0.0
1686009819.3652563,-23.92578125,-62.5,-49.8046875,-29.78515625,0.0
1686009819.3692129,-15.13671875,-62.98828125,-47.8515625,-19.04296875,0.0
1686009819.373117,-31.73828125,-61.5234375,-48.33984375,-36.1328125,0.0
1686009819.3770208,-36.1328125,-51.7578125,-46.875,-41.9921875,0.0
1686009819.380925,-21.484375,-48.33984375,-43.9453125,-35.64453125,0.0
1686009819.3848288,-15.13671875,-51.7578125,-46.38671875,-28.3203125,0.0
1686009819.3887327,-32.71484375,-52.24609375,-49.8046875,-36.62109375,0.0
1686009819.3926368,-41.015625,-56.640625,-55.17578125,-44.43359375,0.0
1686009819.3965406,-26.85546875,-62.01171875,-60.546875,-33.203125,0.0
1686009819.4004447,-14.16015625,-59.5703125,-62.01171875,-11.71875,0.0
1686009819.4043486,-19.53125,-53.7109375,-61.03515625,-21.484375,0.0
1686009819.4082525,-36.1328125,-53.22265625,-55.17578125,-39.0625,0.0
1686009819.4121566,-33.203125,-55.17578125,-50.29296875,-34.1796875,0.0
1686009819.4161103,-19.53125,-53.7109375,-56.15234375,-19.53125,0.0
1686009819.4200144,-11.23046875,-50.29296875,-55.17578125,-9.27734375,0.0
1686009819.4239182,-27.83203125,-51.7578125,-52.24609375,-24.90234375,0.0
1686009819.427822,-35.15625,-58.59375,-60.05859375,-37.59765625,0.0
1686009819.4317262,-22.94921875,-67.3828125,-59.08203125,-36.62109375,0.0
1686009819.43563,-0.9765625,-69.82421875,-57.12890625,-18.5546875,0.0
1686009819.4395342,-13.18359375,-65.4296875,-57.12890625,-19.53125,0.0
1686009819.443438,-22.4609375,-56.640625,-56.15234375,-16.6015625,0.0
1686009819.447342,-12.20703125,-55.17578125,-53.22265625,-3.41796875,0.0
1686009819.451246,3.41796875,-57.12890625,-54.19921875,4.8828125,0.0
1686009819.45515,-7.8125,-58.10546875,-53.7109375,-4.8828125,0.0
1686009819.459054,-20.5078125,-57.6171875,-48.828125,-20.01953125,0.0
1686009819.463005,-2.9296875,-56.15234375,-45.41015625,-10.7421875,0.0
1686009819.466909,6.8359375,-57.12890625,-47.8515625,2.9296875,0.0
1686009819.4708128,-1.953125,-60.546875,-48.33984375,-0.9765625,0.0
1686009819.474717,-21.97265625,-58.59375,-41.9921875,-22.4609375,0.0
1686009819.4786208,-20.99609375,-55.6640625,-46.38671875,-16.6015625,0.0
1686009819.4825249,0.48828125,-48.33984375,-46.875,4.8828125,0.0
1686009819.4864287,5.37109375,-52.24609375,-48.33984375,6.34765625,0.0
1686009819.4903326,-25.390625,-63.96484375,-49.31640625,-18.5546875,0.0
1686009819.4942367,-30.2734375,-58.59375,-43.9453125,-23.92578125,0.0
1686009819.4981406,-17.578125,-59.5703125,-47.36328125,-11.71875,0.0
1686009819.5020447,-0.48828125,-63.4765625,-49.8046875,3.41796875,0.0
1686009819.5059485,-14.16015625,-58.10546875,-48.828125,-14.6484375,0.0
1686009819.509896,-26.85546875,-58.10546875,-46.875,-22.94921875,0.0
1686009819.5138,-17.578125,-61.5234375,-39.55078125,-10.25390625,0.0
1686009819.517704,-7.32421875,-57.6171875,-42.48046875,-2.9296875,0.0
1686009819.5216079,-16.6015625,-58.10546875,-48.828125,-10.25390625,0.0
1686009819.5255117,-37.109375,-66.40625,-49.8046875,-31.73828125,0.0
1686009819.5294158,-29.78515625,-65.91796875,-50.78125,-24.4140625,0.0
1686009819.5333197,-7.32421875,-61.03515625,-48.828125,2.9296875,0.0
1686009819.5372238,-16.6015625,-57.6171875,-48.828125,-3.90625,0.0
1686009819.5411277,-38.0859375,-50.29296875,-47.36328125,-20.99609375,0.0
1686009819.5450315,-34.1796875,-55.17578125,-52.734375,-16.11328125,0.0
1686009819.5489357,-28.80859375,-63.96484375,-55.6640625,-14.16015625,0.0
1686009819.5528395,-21.484375,-63.96484375,-55.17578125,-14.16015625,0.0
1686009819.5567849,-33.203125,-62.5,-62.01171875,-19.04296875,0.0
1686009819.560689,-36.62109375,-59.5703125,-61.5234375,-18.06640625,0.0
1686009819.5645928,-19.53125,-59.5703125,-51.26953125,-10.25390625,0.0
1686009819.568497,3.90625,-52.734375,-45.41015625,2.9296875,0.0
1686009819.5724008,-8.30078125,-53.7109375,-50.29296875,-22.4609375,0.0
1686009819.5763047,-27.34375,-66.40625,-59.08203125,-44.43359375,0.0
1686009819.5802088,-16.11328125,-61.03515625,-57.6171875,-25.390625,0.0
1686009819.5841126,-10.25390625,-57.12890625,-53.22265625,-17.08984375,0.0
1686009819.5880167,-14.6484375,-60.05859375,-55.17578125,-23.4375,0.0
1686009819.5919206,-27.83203125,-59.08203125,-62.98828125,-37.59765625,0.0
1686009819.5958245,-31.25,-58.59375,-59.08203125,-32.71484375,0.0
1686009819.5997286,-20.01953125,-62.5,-47.36328125,-16.6015625,0.0
1686009819.6036937,-16.11328125,-65.4296875,-44.921875,-9.27734375,0.0
1686009819.6075978,-41.015625,-61.5234375,-47.36328125,-21.97265625,0.0
1686009819.6115017,-35.15625,-60.546875,-44.43359375,-21.484375,0.0
1686009819.6154058,-13.671875,-56.640625,-44.43359375,-7.32421875,0.0
1686009819.6193097,-19.04296875,-60.05859375,-54.19921875,-5.37109375,0.0
1686009819.6232135,-37.109375,-62.98828125,-55.17578125,-19.53125,0.0
1686009819.6271176,-46.875,-64.453125,-56.640625,-27.83203125,0.0
1686009819.6310215,-38.57421875,-67.3828125,-58.59375,-20.99609375,0.0
1686009819.6349256,-17.578125,-73.73046875,-59.08203125,-6.8359375,0.0
1686009819.6388295,-25.390625,-80.078125,-62.01171875,-17.578125,0.0
1686009819.6427333,-44.43359375,-73.2421875,-58.59375,-41.50390625,0.0
1686009819.6466374,-38.57421875,-67.3828125,-58.10546875,-29.296875,0.0
1686009819.6505997,-16.6015625,-66.40625,-55.6640625,-9.27734375,0.0
1686009819.6545038,-10.25390625,-62.01171875,-47.8515625,-6.34765625,0.0
1686009819.6584077,-25.87890625,-57.6171875,-38.57421875,-17.578125,0.0
1686009819.6623118,-18.06640625,-58.59375,-38.57421875,-20.5078125,0.0
1686009819.6662157,-2.9296875,-64.453125,-49.8046875,-12.6953125,0.0
1686009819.6701198,-5.37109375,-62.98828125,-55.6640625,-1.46484375,0.0
1686009819.6740236,-30.76171875,-66.89453125,-55.6640625,-21.484375,0.0
1686009819.6779275,-33.69140625,-69.82421875,-53.22265625,-25.87890625,0.0
1686009819.6818316,-16.11328125,-73.2421875,-62.98828125,-10.7421875,0.0
1686009819.6857355,-6.8359375,-70.80078125,-64.453125,-3.90625,0.0
1686009819.6896396,-31.73828125,-65.4296875,-57.12890625,-19.04296875,0.0
1686009819.6935434,-44.921875,-66.40625,-51.7578125,-26.85546875,0.0
1686009819.6975024,-29.78515625,-63.4765625,-46.38671875,-17.578125,0.0
1686009819.7014062,-3.90625,-52.734375,-45.41015625,-4.39453125,0.0
1686009819.7053103,-10.25390625,-49.31640625,-52.734375,-15.625,0.0
1686009819.7092142,-31.25,-50.78125,-60.546875,-39.0625,0.0
1686009819.713118,-23.4375,-56.640625,-59.08203125,-29.296875,0.0
1686009819.7170222,-4.8828125,-53.7109375,-55.6640625,-6.8359375,0.0
1686009819.720926,-9.765625,-48.33984375,-53.22265625,-7.8125,0.0
1686009819.7248302,-33.69140625,-56.15234375,-48.33984375,-24.90234375,0.0
1686009819.728734,-28.3203125,-60.05859375,-48.33984375,-12.6953125,0.0
1686009819.732638,-20.99609375,-56.640625,-51.7578125,-14.16015625,0.0
1686009819.736542,-21.97265625,-53.7109375,-53.22265625,-18.06640625,0.0
1686009819.7404459,-37.109375,-50.78125,-50.78125,-20.99609375,0.0
1686009819.744403,-41.9921875,-50.29296875,-54.19921875,-22.4609375,0.0
1686009819.748307,-19.53125,-47.8515625,-53.7109375,-4.8828125,0.0
1686009819.7522109,-4.8828125,-49.8046875,-53.22265625,10.7421875,0.0
1686009819.7561147,-20.5078125,-53.7109375,-59.08203125,-5.859375,0.0
1686009819.7600188,-27.83203125,-47.8515625,-56.15234375,-27.83203125,0.0
1686009819.7639227,-16.11328125,-46.38671875,-55.6640625,-24.90234375,0.0
1686009819.7678268,1.46484375,-47.8515625,-59.5703125,-6.8359375,0.0
1686009819.7717307,0.9765625,-45.8984375,-62.01171875,-5.37109375,0.0
1686009819.7756348,-21.97265625,-45.41015625,-55.17578125,-19.04296875,0.0
1686009819.7795386,-22.4609375,-42.48046875,-51.7578125,-24.90234375,0.0
1686009819.7834425,-4.8828125,-45.8984375,-59.5703125,-15.13671875,0.0
1686009819.7873466,-2.44140625,-51.7578125,-62.5,-9.765625,0.0
1686009819.7913,-22.94921875,-51.7578125,-59.5703125,-30.2734375,0.0
1686009819.795204,-17.578125,-45.41015625,-53.7109375,-23.92578125,0.0
1686009819.7991078,5.37109375,-50.29296875,-58.59375,-9.27734375,0.0
1686009819.803012,17.08984375,-56.15234375,-63.96484375,-7.8125,0.0
1686009819.8069158,-12.20703125,-51.7578125,-60.546875,-16.6015625,0.0
1686009819.8108199,-29.78515625,-52.734375,-55.6640625,-21.484375,0.0
1686009819.8147237,-10.25390625,-52.24609375,-50.78125,-11.71875,0.0
1686009819.8186278,10.25390625,-56.15234375,-50.78125,10.25390625,0.0
1686009819.8225317,-10.7421875,-57.6171875,-53.22265625,1.953125,0.0
1686009819.8264356,-22.4609375,-53.7109375,-50.29296875,-25.390625,0.0
1686009819.8303397,-15.13671875,-53.22265625,-43.9453125,-20.99609375,0.0
1686009819.8342435,-9.765625,-58.10546875,-48.828125,-9.27734375,0.0
1686009819.8381941,-8.7890625,-58.59375,-52.24609375,-5.859375,0.0
1686009819.8420982,-22.94921875,-49.8046875,-41.50390625,-7.32421875,0.0
1686009819.846002,-22.94921875,-57.6171875,-44.43359375,-16.6015625,0.0
1686009819.8499062,-8.30078125,-72.265625,-59.08203125,-5.859375,0.0
1686009819.85381,-2.44140625,-70.3125,-57.12890625,3.41796875,0.0
1686009819.8577142,-22.4609375,-63.4765625,-47.36328125,-15.13671875,0.0
1686009819.861618,-23.4375,-67.87109375,-41.50390625,-14.6484375,0.0
1686009819.865522,-14.16015625,-75.68359375,-47.36328125,-5.859375,0.0
1686009819.869426,-4.8828125,-70.3125,-48.828125,-1.953125,0.0
1686009819.8733299,-19.04296875,-62.01171875,-49.8046875,-15.625,0.0
1686009819.877234,-31.25,-60.546875,-57.6171875,-33.203125,0.0
1686009819.8811378,-15.625,-57.6171875,-53.22265625,-17.578125,0.0
1686009819.885109,2.44140625,-55.6640625,-51.26953125,5.859375,0.0
1686009819.8890128,-12.6953125,-64.94140625,-59.08203125,-10.7421875,0.0
1686009819.8929167,-31.73828125,-69.82421875,-63.96484375,-27.83203125,0.0
1686009819.8968208,-27.83203125,-71.77734375,-58.10546875,-19.53125,0.0
1686009819.9007246,-14.6484375,-72.75390625,-59.08203125,-7.32421875,0.0
1686009819.9046288,-15.13671875,-74.70703125,-63.4765625,-10.25390625,0.0
1686009819.9085326,-34.66796875,-78.61328125,-62.98828125,-23.92578125,0.0
1686009819.9124367,-34.66796875,-70.80078125,-57.12890625,-25.87890625,0.0
1686009819.9163406,-25.87890625,-68.359375,-51.26953125,-21.97265625,0.0
1686009819.9202445,-16.6015625,-63.4765625,-51.7578125,-11.71875,0.0
1686009819.9241486,-29.296875,-55.17578125,-48.33984375,-15.625,0.0
1686009819.9280524,-41.015625,-60.05859375,-54.19921875,-22.4609375,0.0
1686009819.931998,-25.390625,-62.01171875,-51.7578125,-20.5078125,0.0
1686009819.935902,-5.37109375,-64.453125,-47.36328125,-16.11328125,0.0
1686009819.939806,-32.2265625,-68.359375,-46.38671875,-30.76171875,0.0
1686009819.94371,-41.9921875,-63.4765625,-41.9921875,-31.25,0.0
1686009819.947614,-32.71484375,-63.96484375,-44.43359375,-23.4375,0.0
1686009819.9515178,-18.06640625,-66.40625,-42.96875,-11.23046875,0.0
1686009819.955422,-25.87890625,-66.89453125,-49.31640625,-16.6015625,0.0
1686009819.9593258,-54.6875,-69.82421875,-52.734375,-40.0390625,0.0
1686009819.96323,-42.96875,-65.91796875,-47.8515625,-33.69140625,0.0
1686009819.9671338,-17.08984375,-56.640625,-47.8515625,-5.37109375,0.0
1686009819.9710379,-12.20703125,-57.6171875,-51.7578125,-4.8828125,0.0
1686009819.9749417,-29.78515625,-58.59375,-48.828125,-35.64453125,0.0
1686009819.9789064,-28.3203125,-56.15234375,-49.31640625,-40.52734375,0.0
1686009819.9828105,-17.08984375,-56.640625,-56.15234375,-28.80859375,0.0
1686009819.9867144,-13.671875,-63.4765625,-51.7578125,-21.97265625,0.0
1686009819.9906185,-33.69140625,-68.84765625,-45.41015625,-26.85546875,0.0
1686009819.9945223,-45.41015625,-68.359375,-46.875,-25.390625,0.0
1686009819.9984264,-43.9453125,-63.96484375,-54.19921875,-19.04296875,0.0
1686009820.0023303,-31.25,-55.6640625,-50.29296875,-8.7890625,0.0
1686009820.0062342,-38.57421875,-55.6640625,-41.015625,-14.16015625,0.0
1686009820.0101383,-47.8515625,-65.4296875,-44.43359375,-18.06640625,0.0
1686009820.0140421,-36.62109375,-64.453125,-55.6640625,-11.23046875,0.0
1686009820.0179462,-30.2734375,-57.6171875,-58.10546875,-19.04296875,0.0
1686009820.02185,-33.69140625,-55.6640625,-54.19921875,-29.78515625,0.0
1686009820.025812,-46.875,-58.10546875,-57.6171875,-45.8984375,0.0
1686009820.029716,-42.48046875,-63.4765625,-59.08203125,-48.33984375,0.0
1686009820.0336199,-20.01953125,-62.98828125,-63.4765625,-36.62109375,0.0
1686009820.037524,-20.5078125,-59.08203125,-71.2890625,-32.2265625,0.0
1686009820.0414279,-44.43359375,-56.640625,-58.59375,-43.45703125,0.0
1686009820.045332,-36.1328125,-52.734375,-49.8046875,-41.50390625,0.0
1686009820.0492358,-18.5546875,-53.7109375,-58.10546875,-39.0625,0.0
1686009820.05314,-18.5546875,-60.546875,-67.3828125,-40.52734375,0.0
1686009820.0570438,-32.71484375,-57.6171875,-64.94140625,-37.109375,0.0
1686009820.0609477,-36.1328125,-54.19921875,-56.640625,-34.66796875,0.0
1686009820.0648518,-30.76171875,-54.19921875,-57.12890625,-33.203125,0.0
1686009820.0687556,-11.23046875,-53.7109375,-57.12890625,-14.16015625,0.0
1686009820.0727148,-17.578125,-58.10546875,-57.6171875,-9.27734375,0.0
1686009820.0766187,-32.71484375,-62.01171875,-45.41015625,-16.6015625,0.0
1686009820.0805225,-27.83203125,-64.94140625,-41.50390625,-12.6953125,0.0
1686009820.0844266,-0.48828125,-59.5703125,-46.38671875,0.0,0.0
1686009820.0883305,-1.953125,-53.22265625,-46.38671875,-2.9296875,0.0
1686009820.0922346,-35.64453125,-57.12890625,-52.734375,-26.3671875,0.0
1686009820.0961385,-36.1328125,-61.5234375,-56.15234375,-33.69140625,0.0
1686009820.1000426,-12.20703125,-64.94140625,-58.10546875,-21.484375,0.0
1686009820.1039464,-7.32421875,-68.84765625,-59.08203125,-10.25390625,0.0
1686009820.1078506,-36.1328125,-63.4765625,-55.17578125,-32.2265625,0.0
1686009820.1117544,-33.69140625,-57.6171875,-46.875,-29.78515625,0.0
1686009820.1156585,-22.4609375,-59.5703125,-47.8515625,-17.08984375,0.0
1686009820.119615,-15.13671875,-57.6171875,-50.78125,-9.27734375,0.0
1686009820.123519,-34.66796875,-55.17578125,-51.26953125,-29.78515625,0.0
1686009820.127423,-39.55078125,-50.29296875,-42.96875,-41.015625,0.0
1686009820.131327,-17.08984375,-47.36328125,-39.0625,-26.85546875,0.0
1686009820.1352308,0.0,-55.17578125,-53.22265625,-16.6015625,0.0
1686009820.139135,-14.16015625,-59.08203125,-61.5234375,-21.484375,0.0
1686009820.1430387,-33.203125,-59.08203125,-64.453125,-35.15625,0.0
1686009820.1469429,-26.3671875,-59.08203125,-65.4296875,-23.92578125,0.0
1686009820.1508467,-18.5546875,-63.4765625,-62.98828125,-9.765625,0.0
1686009820.1547508,-17.08984375,-57.6171875,-60.546875,-14.6484375,0.0
1686009820.1586547,-25.390625,-50.29296875,-52.734375,-25.390625,0.0
1686009820.1625588,-21.97265625,-53.7109375,-47.8515625,-19.53125,0.0
1686009820.1665127,-7.8125,-50.78125,-47.8515625,-7.32421875,0.0
1686009820.1704166,-1.46484375,-48.33984375,-49.31640625,-3.90625,0.0
1686009820.1743205,-20.5078125,-49.8046875,-46.875,-18.5546875,0.0
1686009820.1782246,-31.73828125,-58.59375,-44.43359375,-32.2265625,0.0
1686009820.1821284,-24.4140625,-58.59375,-48.33984375,-21.97265625,0.0
1686009820.1860325,-7.32421875,-51.26953125,-51.7578125,-13.671875,0.0
1686009820.1899364,-13.18359375,-57.6171875,-54.19921875,-28.80859375,0.0
1686009820.1938405,-28.3203125,-67.3828125,-55.6640625,-32.2265625,0.0
1686009820.1977444,-27.83203125,-57.6171875,-54.19921875,-26.85546875,0.0
1686009820.2016485,0.9765625,-48.33984375,-51.26953125,-2.44140625,0.0
1686009820.2055523,-4.8828125,-51.26953125,-55.17578125,-0.48828125,0.0
1686009820.2094564,-35.15625,-53.22265625,-61.5234375,-26.85546875,0.0
1686009820.2134068,-22.94921875,-47.8515625,-57.12890625,-23.4375,0.0
1686009820.2173107,-5.859375,-43.45703125,-52.734375,-16.6015625,0.0
1686009820.2212148,-10.25390625,-53.22265625,-57.12890625,-24.90234375,0.0
1686009820.2251186,-26.3671875,-56.15234375,-65.4296875,-35.15625,0.0
1686009820.2290225,-36.1328125,-50.78125,-63.96484375,-32.2265625,0.0
1686009820.2329266,-19.53125,-54.6875,-53.22265625,-23.4375,0.0
1686009820.2368305,3.90625,-58.10546875,-49.8046875,-10.25390625,0.0
1686009820.2407346,-13.671875,-54.6875,-51.26953125,-17.08984375,0.0
1686009820.2446384,-27.83203125,-46.875,-53.22265625,-26.3671875,0.0
1686009820.2485425,-18.5546875,-45.41015625,-55.17578125,-10.25390625,0.0
1686009820.2524464,-1.46484375,-45.41015625,-48.33984375,9.765625,0.0
1686009820.2563505,-12.6953125,-51.7578125,-48.33984375,-6.34765625,0.0
1686009820.2602983,-28.80859375,-58.10546875,-47.36328125,-30.76171875,0.0
1686009820.264202,-18.5546875,-59.5703125,-46.875,-23.4375,0.0
1686009820.268106,-2.44140625,-51.26953125,-51.7578125,-0.48828125,0.0
1686009820.27201,-11.23046875,-44.921875,-52.24609375,-4.39453125,0.0
1686009820.275914,-30.2734375,-51.7578125,-56.640625,-23.92578125,0.0
1686009820.279818,-30.76171875,-54.19921875,-55.6640625,-18.5546875,0.0
1686009820.283722,-13.18359375,-52.24609375,-52.24609375,3.41796875,0.0
1686009820.287626,-10.25390625,-53.22265625,-53.22265625,0.9765625,0.0
1686009820.29153,-38.0859375,-52.24609375,-50.29296875,-27.34375,0.0
1686009820.295434,-39.0625,-47.8515625,-49.8046875,-27.83203125,0.0
1686009820.2993379,-18.5546875,-47.36328125,-48.828125,-9.27734375,0.0
1686009820.303242,-11.23046875,-51.7578125,-49.31640625,-5.859375,0.0
1686009820.3071876,-31.73828125,-52.734375,-42.48046875,-21.484375,0.0
1686009820.3110914,-36.1328125,-47.36328125,-40.0390625,-23.92578125,0.0
1686009820.3149955,-22.94921875,-43.45703125,-41.015625,-14.16015625,0.0
1686009820.3188994,-10.25390625,-49.31640625,-43.45703125,-7.8125,0.0
1686009820.3228035,-12.6953125,-49.31640625,-46.875,-16.6015625,0.0
1686009820.3267074,-24.4140625,-44.921875,-43.45703125,-22.94921875,0.0
1686009820.3306115,-22.4609375,-49.8046875,-42.48046875,-13.671875,0.0
1686009820.3345153,-5.859375,-51.26953125,-43.9453125,-2.9296875,0.0
1686009820.3384194,-5.37109375,-43.9453125,-37.59765625,-0.48828125,0.0
1686009820.3423233,-32.2265625,-53.22265625,-43.9453125,-21.484375,0.0
1686009820.3462274,-37.109375,-62.98828125,-49.31640625,-26.3671875,0.0
1686009820.3501313,-21.484375,-56.15234375,-46.38671875,-12.6953125,0.0
1686009820.3540967,-12.6953125,-55.6640625,-44.43359375,-6.34765625,0.0
1686009820.3580005,-32.71484375,-60.546875,-38.57421875,-20.5078125,0.0
1686009820.3619046,-41.9921875,-56.15234375,-33.69140625,-28.80859375,0.0
1686009820.3658085,-30.2734375,-51.7578125,-41.9921875,-17.578125,0.0
1686009820.3697126,-14.16015625,-54.6875,-45.41015625,-1.953125,0.0
1686009820.3736165,-21.97265625,-59.5703125,-49.8046875,-17.578125,0.0
1686009820.3775206,-37.109375,-58.59375,-51.26953125,-36.62109375,0.0
1686009820.3814244,-28.80859375,-47.8515625,-40.52734375,-25.87890625,0.0
1686009820.3853285,-8.30078125,-41.50390625,-37.59765625,-7.32421875,0.0
1686009820.3892324,-10.7421875,-41.50390625,-40.0390625,-12.20703125,0.0
1686009820.3931365,-38.0859375,-47.36328125,-45.41015625,-42.48046875,0.0
1686009820.3970404,-37.59765625,-53.7109375,-50.78125,-41.9921875,0.0
1686009820.4010034,-6.34765625,-56.640625,-51.7578125,-10.25390625,0.0
1686009820.4049072,-8.30078125,-62.5,-56.640625,-5.37109375,0.0
1686009820.408811,-35.15625,-58.10546875,-58.10546875,-27.83203125,0.0
1686009820.4127152,-32.71484375,-59.08203125,-50.78125,-33.69140625,0.0
1686009820.416619,-24.90234375,-67.3828125,-50.78125,-23.4375,0.0
1686009820.4205232,-12.20703125,-55.6640625,-51.7578125,-4.8828125,0.0
1686009820.424427,-35.15625,-45.41015625,-48.828125,-24.90234375,0.0
1686009820.4283311,-48.828125,-53.22265625,-41.9921875,-42.48046875,0.0
1686009820.432235,-33.203125,-63.4765625,-44.43359375,-28.3203125,0.0
1686009820.436139,-17.08984375,-62.01171875,-58.59375,-16.6015625,0.0
1686009820.440043,-34.1796875,-60.05859375,-65.91796875,-34.66796875,0.0
1686009820.443947,-42.96875,-62.98828125,-64.94140625,-43.9453125,0.0
1686009820.4479077,-16.6015625,-62.01171875,-62.01171875,-27.83203125,0.0
1686009820.4518118,-3.90625,-65.4296875,-62.98828125,-22.4609375,0.0
1686009820.4557157,-13.671875,-63.96484375,-65.91796875,-29.78515625,0.0
1686009820.4596198,-31.73828125,-59.08203125,-62.5,-47.8515625,0.0
1686009820.4635236,-30.2734375,-61.5234375,-57.6171875,-47.36328125,0.0
1686009820.4674277,-11.23046875,-62.5,-52.734375,-25.87890625,0.0
1686009820.4713316,-5.859375,-62.01171875,-49.31640625,-26.3671875,0.0
1686009820.4752357,-33.69140625,-63.96484375,-49.31640625,-49.31640625,0.0
1686009820.4791396,-38.0859375,-64.94140625,-55.6640625,-33.203125,0.0
1686009820.4830437,-26.85546875,-61.03515625,-57.12890625,-21.484375,0.0
1686009820.4869475,-15.13671875,-60.546875,-53.7109375,-18.5546875,0.0
1686009820.4908516,-32.71484375,-65.91796875,-52.734375,-32.71484375,0.0
1686009820.4948094,-42.96875,-66.89453125,-49.31640625,-45.41015625,0.0
1686009820.4987135,-26.85546875,-56.15234375,-44.43359375,-26.3671875,0.0
1686009820.5026174,-13.18359375,-55.6640625,-41.9921875,-3.90625,0.0
1686009820.5065215,-23.4375,-59.5703125,-45.8984375,-16.6015625,0.0
1686009820.5104253,-35.15625,-57.12890625,-49.31640625,-32.2265625,0.0
1686009820.5143294,-23.92578125,-55.17578125,-52.734375,-23.92578125,0.0
1686009820.5182333,-8.7890625,-56.640625,-49.31640625,-8.30078125,0.0
1686009820.5221374,-11.23046875,-59.08203125,-41.9921875,-3.41796875,0.0
1686009820.5260413,-28.3203125,-61.03515625,-37.109375,-18.06640625,0.0
1686009820.5299454,-28.3203125,-65.4296875,-42.48046875,-18.06640625,0.0
1686009820.5338492,-10.25390625,-61.5234375,-42.96875,2.9296875,0.0
1686009820.5377533,4.39453125,-50.78125,-36.1328125,10.25390625,0.0
1686009820.5417078,-19.04296875,-50.29296875,-44.43359375,-20.99609375,0.0
1686009820.5456119,-33.69140625,-57.6171875,-57.6171875,-31.25,0.0
1686009820.5495157,-23.4375,-56.15234375,-62.5,-17.578125,0.0
1686009820.5534198,-3.90625,-55.17578125,-63.4765625,-7.32421875,0.0
1686009820.5573237,-16.11328125,-59.08203125,-61.5234375,-19.53125,0.0
1686009820.5612278,-28.80859375,-64.94140625,-58.10546875,-29.296875,0.0
1686009820.5651317,-20.5078125,-62.98828125,-59.08203125,-22.94921875,0.0
1686009820.5690358,-7.32421875,-71.2890625,-54.6875,-4.8828125,0.0
1686009820.5729396,-17.08984375,-75.1953125,-53.22265625,-14.16015625,0.0
1686009820.5768437,-34.66796875,-58.59375,-48.33984375,-29.78515625,0.0
1686009820.5807476,-26.85546875,-51.7578125,-43.45703125,-14.6484375,0.0
1686009820.5846517,-8.7890625,-60.546875,-49.8046875,-2.9296875,0.0
1686009820.5886028,-11.23046875,-61.03515625,-47.36328125,-8.30078125,0.0
1686009820.5925066,-33.69140625,-57.6171875,-47.36328125,-25.87890625,0.0
1686009820.5964108,-32.71484375,-59.08203125,-54.6875,-25.390625,0.0
1686009820.6003146,-11.23046875,-56.15234375,-54.19921875,-8.7890625,0.0
1686009820.6042187,-5.37109375,-57.6171875,-61.5234375,-7.32421875,0.0
1686009820.6081226,-34.1796875,-61.5234375,-64.94140625,-26.85546875,0.0
1686009820.6120267,-41.9921875,-62.5,-57.12890625,-23.4375,0.0
1686009820.6159306,-24.4140625,-62.01171875,-51.7578125,-7.32421875,0.0
1686009820.6198347,-17.578125,-57.12890625,-48.828125,-7.32421875,0.0
1686009820.6237385,-38.0859375,-58.10546875,-52.24609375,-24.90234375,0.0
1686009820.6276426,-41.50390625,-54.19921875,-48.33984375,-29.296875,0.0
1686009820.6315465,-27.83203125,-53.7109375,-45.8984375,-21.97265625,0.0
1686009820.6354945,-18.5546875,-56.15234375,-49.8046875,-21.484375,0.0
1686009820.6393983,-25.87890625,-57.6171875,-52.24609375,-28.80859375,0.0
1686009820.6433024,-40.52734375,-55.6640625,-46.875,-35.64453125,0.0
1686009820.6472063,-41.50390625,-57.6171875,-51.7578125,-35.15625,0.0
1686009820.6511104,-23.4375,-59.08203125,-53.22265625,-21.484375,0.0
1686009820.6550143,-16.6015625,-61.5234375,-52.24609375,-18.06640625,0.0
1686009820.6589184,-39.55078125,-59.08203125,-53.22265625,-29.78515625,0.0
1686009820.6628222,-40.0390625,-58.59375,-58.10546875,-30.76171875,0.0
1686009820.6667264,-16.6015625,-54.6875,-55.17578125,-24.90234375,0.0
1686009820.6706302,-8.7890625,-46.38671875,-50.29296875,-15.625,0.0
1686009820.6745343,-34.66796875,-44.43359375,-53.7109375,-29.78515625,0.0
1686009820.6784382,-38.0859375,-37.59765625,-41.9921875,-35.64453125,0.0
1686009820.682407,-30.2734375,-42.48046875,-39.55078125,-24.4140625,0.0
1686009820.6863108,-15.13671875,-55.6640625,-52.24609375,-13.18359375,0.0
1686009820.6902149,-25.390625,-56.15234375,-49.8046875,-31.73828125,0.0
1686009820.6941187,-41.015625,-58.10546875,-47.8515625,-45.41015625,0.0
1686009820.6980228,-25.87890625,-62.98828125,-48.828125,-22.94921875,0.0
1686009820.7019267,-0.9765625,-62.01171875,-49.8046875,-4.39453125,0.0
1686009820.7058308,0.48828125,-56.15234375,-48.828125,-16.11328125,0.0
1686009820.7097347,-22.94921875,-50.29296875,-43.45703125,-46.38671875,0.0
1686009820.7136388,-20.01953125,-46.875,-41.50390625,-41.9921875,0.0
1686009820.7175426,5.859375,-42.96875,-40.52734375,-15.13671875,0.0
1686009820.7214468,0.48828125,-43.45703125,-45.8984375,-8.30078125,0.0
1686009820.7253506,-39.0625,-49.31640625,-52.24609375,-26.3671875,0.0
1686009820.7293165,-50.29296875,-53.7109375,-42.96875,-20.5078125,0.0
1686009820.7332203,-37.59765625,-59.5703125,-41.015625,-2.44140625,0.0
1686009820.7371244,-28.80859375,-63.4765625,-48.33984375,3.41796875,0.0
1686009820.7410283,-45.41015625,-61.5234375,-51.7578125,-8.7890625,0.0
1686009820.7449324,-45.8984375,-59.5703125,-52.734375,-12.6953125,0.0
1686009820.7488363,-35.15625,-57.12890625,-47.8515625,-1.46484375,0.0
1686009820.7527404,-22.94921875,-62.01171875,-41.50390625,14.6484375,0.0
1686009820.7566445,-28.80859375,-60.546875,-39.0625,-2.44140625,0.0
1686009820.7605484,-40.0390625,-58.10546875,-40.0390625,-23.92578125,0.0
1686009820.7644525,-32.2265625,-63.96484375,-49.31640625,-9.27734375,0.0
1686009820.7683563,-16.6015625,-61.03515625,-46.38671875,-4.8828125,0.0
1686009820.7722604,-10.25390625,-53.22265625,-39.0625,-7.32421875,0.0
1686009820.7762232,-25.87890625,-52.734375,-42.96875,-14.16015625,0.0
1686009820.780127,-32.2265625,-53.7109375,-43.9453125,-18.5546875,0.0
1686009820.7840312,-14.6484375,-58.59375,-45.8984375,-6.8359375,0.0
1686009820.787935,-2.44140625,-56.640625,-47.36328125,1.46484375,0.0
1686009820.7918391,-24.4140625,-54.6875,-52.24609375,-20.5078125,0.0
1686009820.795743,-31.73828125,-60.05859375,-59.08203125,-29.296875,0.0
1686009820.799647,-9.765625,-62.01171875,-61.5234375,-16.6015625,0.0
1686009820.803551,4.8828125,-59.5703125,-62.01171875,-11.71875,0.0
1686009820.807455,-16.6015625,-60.05859375,-66.89453125,-23.92578125,0.0
1686009820.811359,-34.1796875,-64.453125,-62.01171875,-26.3671875,0.0
1686009820.815263,-31.25,-62.01171875,-57.6171875,-21.97265625,0.0
1686009820.8191671,-11.23046875,-58.10546875,-58.10546875,-4.39453125,0.0
1686009820.8231268,-13.18359375,-58.59375,-56.15234375,2.44140625,0.0
1686009820.827031,-34.1796875,-55.6640625,-61.5234375,-16.6015625,0.0
1686009820.8309348,-31.73828125,-55.6640625,-71.2890625,-20.99609375,0.0
1686009820.8348389,-15.625,-60.05859375,-73.2421875,-9.27734375,0.0
1686009820.8387427,-12.6953125,-57.6171875,-64.453125,-4.8828125,0.0
1686009820.8426468,-24.4140625,-54.6875,-64.94140625,-18.06640625,0.0
1686009820.8465507,-24.4140625,-51.7578125,-66.40625,-26.3671875,0.0
1686009820.8504548,-11.23046875,-50.29296875,-55.17578125,-23.4375,0.0
1686009820.8543587,-1.953125,-60.546875,-50.29296875,-9.27734375,0.0
1686009820.8582628,-24.4140625,-58.59375,-44.921875,-25.390625,0.0
1686009820.8621666,-30.76171875,-53.22265625,-42.48046875,-23.4375,0.0
1686009820.8660707,-20.99609375,-56.15234375,-45.8984375,-5.37109375,0.0
1686009820.8700275,-6.8359375,-54.6875,-48.828125,-6.8359375,0.0
1686009820.8739316,-15.625,-52.24609375,-46.38671875,-21.484375,0.0
1686009820.8778355,-33.203125,-50.78125,-47.36328125,-23.4375,0.0
1686009820.8817396,-19.53125,-49.31640625,-44.43359375,-8.7890625,0.0
1686009820.8856435,-7.8125,-51.7578125,-42.48046875,-7.8125,0.0
1686009820.8895476,-12.20703125,-57.12890625,-47.36328125,-20.99609375,0.0
1686009820.8934515,-27.34375,-57.6171875,-47.8515625,-33.69140625,0.0
1686009820.8973556,-19.04296875,-58.10546875,-45.41015625,-15.625,0.0
1686009820.9012594,6.8359375,-61.03515625,-42.48046875,8.7890625,0.0
1686009820.9051635,4.8828125,-63.4765625,-40.52734375,-4.8828125,0.0
1686009820.9090676,-21.97265625,-62.01171875,-42.96875,-20.01953125,0.0
1686009820.9129715,-27.83203125,-55.17578125,-48.828125,-9.27734375,0.0
1686009820.9169261,-19.53125,-48.828125,-49.8046875,-4.39453125,0.0
1686009820.92083,-12.20703125,-55.17578125,-48.828125,-3.90625,0.0
1686009820.924734,-28.80859375,-62.98828125,-54.6875,-19.04296875,0.0
1686009820.928638,-32.2265625,-60.546875,-54.6875,-22.94921875,0.0
1686009820.932542,-20.01953125,-59.08203125,-51.7578125,-9.765625,0.0
1686009820.936446,5.37109375,-58.10546875,-50.29296875,6.34765625,0.0
1686009820.94035,0.0,-55.17578125,-52.734375,-0.48828125,0.0
1686009820.9442542,-18.5546875,-54.19921875,-55.6640625,-3.90625,0.0
1686009820.948158,-20.99609375,-55.6640625,-52.24609375,-6.8359375,0.0
1686009820.9520621,-19.53125,-56.15234375,-49.31640625,-7.32421875,0.0
1686009820.955966,-15.13671875,-55.6640625,-50.29296875,-4.8828125,0.0
1686009820.95987,-35.15625,-59.08203125,-49.31640625,-24.4140625,0.0
1686009820.9638214,-32.71484375,-58.10546875,-41.9921875,-20.5078125,0.0
1686009820.9677253,-16.6015625,-58.10546875,-41.9921875,-4.8828125,0.0
1686009820.9716294,-14.6484375,-60.05859375,-47.8515625,-2.9296875,0.0
1686009820.9755332,-33.69140625,-60.546875,-52.24609375,-18.06640625,0.0
1686009820.9794374,-39.55078125,-61.03515625,-55.17578125,-32.2265625,0.0
1686009820.9833412,-22.4609375,-56.15234375,-55.6640625,-20.99609375,0.0
1686009820.9872453,-10.7421875,-54.19921875,-61.5234375,-9.765625,0.0
1686009820.9911492,-24.4140625,-54.6875,-62.98828125,-30.2734375,0.0
1686009820.9950533,-37.109375,-47.8515625,-52.734375,-45.8984375,0.0
1686009820.9989574,-26.85546875,-45.8984375,-42.48046875,-32.71484375,0.0
1686009821.0028613,-8.7890625,-49.31640625,-40.0390625,-12.6953125,0.0
1686009821.0067654,-15.625,-55.6640625,-40.52734375,-10.25390625,0.0
1686009821.0107136,-36.1328125,-66.40625,-46.38671875,-25.390625,0.0
1686009821.0146174,-32.71484375,-62.5,-51.26953125,-22.94921875,0.0
1686009821.0185215,-12.6953125,-58.10546875,-52.24609375,-8.7890625,0.0
1686009821.0224254,-15.13671875,-56.15234375,-54.19921875,-15.625,0.0
1686009821.0263295,-34.66796875,-48.828125,-54.6875,-28.80859375,0.0
1686009821.0302334,-35.64453125,-48.33984375,-55.6640625,-26.3671875,0.0
1686009821.0341375,-17.08984375,-57.12890625,-54.19921875,-9.765625,0.0
1686009821.0380414,-4.8828125,-64.453125,-58.59375,0.48828125,0.0
1686009821.0419455,-25.87890625,-58.10546875,-56.15234375,-17.578125,0.0
1686009821.0458493,-38.0859375,-58.10546875,-52.734375,-18.06640625,0.0
1686009821.0497534,-20.5078125,-60.05859375,-53.7109375,-2.44140625,0.0
1686009821.0536573,-10.25390625,-62.5,-48.33984375,0.9765625,0.0
1686009821.0576265,-24.4140625,-63.4765625,-51.26953125,-11.71875,0.0
1686009821.0615304,-26.85546875,-53.7109375,-51.7578125,-19.04296875,0.0
1686009821.0654345,-21.484375,-50.78125,-56.15234375,-23.92578125,0.0
1686009821.0693383,-4.39453125,-55.17578125,-64.94140625,-13.671875,0.0
